# WL(A)	 Flux(ergs/cm**2/s/A)                                      
1151.000  4.270E-14
1151.200  4.270E-14
1151.400  4.270E-14
1151.600  4.270E-14
1151.800  4.270E-14
1152.000  4.197E-14
1152.200  4.108E-14
1152.400  4.002E-14
1152.600  3.903E-14
1152.800  3.791E-14
1153.000  3.686E-14
1153.200  3.582E-14
1153.400  3.468E-14
1153.600  3.365E-14
1153.800  3.286E-14
1154.000  3.213E-14
1154.200  3.150E-14
1154.400  3.086E-14
1154.600  3.032E-14
1154.800  2.977E-14
1155.000  2.930E-14
1155.200  2.889E-14
1155.400  2.847E-14
1155.600  2.813E-14
1155.800  2.780E-14
1156.000  2.751E-14
1156.200  2.725E-14
1156.400  2.697E-14
1156.600  2.670E-14
1156.800  2.639E-14
1157.000  2.608E-14
1157.200  2.579E-14
1157.400  2.545E-14
1157.600  2.514E-14
1157.800  2.479E-14
1158.000  2.444E-14
1158.200  2.410E-14
1158.400  2.374E-14
1158.600  2.341E-14
1158.800  2.304E-14
1159.000  2.272E-14
1159.200  2.241E-14
1159.400  2.208E-14
1159.600  2.179E-14
1159.800  2.149E-14
1160.000  2.121E-14
1160.200  2.096E-14
1160.400  2.070E-14
1160.600  2.048E-14
1160.800  2.025E-14
1161.000  2.005E-14
1161.200  1.987E-14
1161.400  1.971E-14
1161.600  1.957E-14
1161.800  1.944E-14
1162.000  1.934E-14
1162.200  1.925E-14
1162.400  1.916E-14
1162.600  1.910E-14
1162.800  1.904E-14
1163.000  1.898E-14
1163.200  1.894E-14
1163.400  1.890E-14
1163.600  1.887E-14
1163.800  1.884E-14
1164.000  1.881E-14
1164.200  1.878E-14
1164.400  1.875E-14
1164.600  1.871E-14
1164.800  1.867E-14
1165.000  1.862E-14
1165.200  1.857E-14
1165.400  1.850E-14
1165.600  1.843E-14
1165.800  1.835E-14
1166.000  1.826E-14
1166.200  1.817E-14
1166.400  1.806E-14
1166.600  1.795E-14
1166.800  1.783E-14
1167.000  1.771E-14
1167.200  1.759E-14
1167.400  1.745E-14
1167.600  1.733E-14
1167.800  1.720E-14
1168.000  1.707E-14
1168.200  1.695E-14
1168.400  1.683E-14
1168.600  1.671E-14
1168.800  1.660E-14
1169.000  1.649E-14
1169.200  1.640E-14
1169.400  1.630E-14
1169.600  1.622E-14
1169.800  1.614E-14
1170.000  1.608E-14
1170.200  1.602E-14
1170.400  1.596E-14
1170.600  1.592E-14
1170.800  1.588E-14
1171.000  1.585E-14
1171.200  1.582E-14
1171.400  1.580E-14
1171.600  1.578E-14
1171.800  1.576E-14
1172.000  1.574E-14
1172.200  1.573E-14
1172.400  1.570E-14
1172.600  1.568E-14
1172.800  1.565E-14
1173.000  1.561E-14
1173.200  1.557E-14
1173.400  1.552E-14
1173.600  1.546E-14
1173.800  1.539E-14
1174.000  1.532E-14
1174.200  1.524E-14
1174.400  1.514E-14
1174.600  1.504E-14
1174.800  7.849E-14
1175.000  2.548E-13
1175.200  1.473E-13
1175.400  2.505E-13
1175.600  2.888E-13
1175.800  7.679E-13
1176.000  2.347E-13
1176.200  2.347E-13
1176.400  2.800E-13
1176.600  1.356E-13
1176.800  1.339E-14
1177.000  1.323E-14
1177.200  1.308E-14
1177.400  1.292E-14
1177.600  1.278E-14
1177.800  1.262E-14
1178.000  1.248E-14
1178.200  1.235E-14
1178.400  1.222E-14
1178.600  1.211E-14
1178.800  1.199E-14
1179.000  1.189E-14
1179.200  1.180E-14
1179.400  1.171E-14
1179.600  1.163E-14
1179.800  1.155E-14
1180.000  1.148E-14
1180.200  1.142E-14
1180.400  1.137E-14
1180.600  1.132E-14
1180.800  1.128E-14
1181.000  1.124E-14
1181.200  1.121E-14
1181.400  1.118E-14
1181.600  1.116E-14
1181.800  1.114E-14
1182.000  1.113E-14
1182.200  1.111E-14
1182.400  1.110E-14
1182.600  1.109E-14
1182.800  1.109E-14
1183.000  1.108E-14
1183.200  1.108E-14
1183.400  1.107E-14
1183.600  1.106E-14
1183.800  1.106E-14
1184.000  1.105E-14
1184.200  1.104E-14
1184.400  1.102E-14
1184.600  1.101E-14
1184.800  1.099E-14
1185.000  1.096E-14
1185.200  1.094E-14
1185.400  1.090E-14
1185.600  1.087E-14
1185.800  1.082E-14
1186.000  1.077E-14
1186.200  1.073E-14
1186.400  1.067E-14
1186.600  1.061E-14
1186.800  1.055E-14
1187.000  1.048E-14
1187.200  1.042E-14
1187.400  1.034E-14
1187.600  1.027E-14
1187.800  1.019E-14
1188.000  1.012E-14
1188.200  1.005E-14
1188.400  9.973E-15
1188.600  9.907E-15
1188.800  9.838E-15
1189.000  9.776E-15
1189.200  9.719E-15
1189.400  9.662E-15
1189.600  9.615E-15
1189.800  9.568E-15
1190.000  9.528E-15
1190.200  9.493E-15
1190.400  6.868E-14
1190.600  5.980E-14
1190.800  9.410E-15
1191.000  9.391E-15
1191.200  9.375E-15
1191.400  9.361E-15
1191.600  9.351E-15
1191.800  9.343E-15
1192.000  9.338E-15
1192.200  9.334E-15
1192.400  9.332E-15
1192.600  9.335E-15
1192.800  9.343E-15
1193.000  9.356E-15
1193.200  9.373E-15
1193.400  3.339E-14
1193.600  9.423E-15
1193.800  9.458E-15
1194.000  9.495E-15
1194.200  9.536E-15
1194.400  5.459E-14
1194.600  8.874E-14
1194.800  9.700E-15
1195.000  9.762E-15
1195.200  9.827E-15
1195.400  9.903E-15
1195.600  9.976E-15
1195.800  1.006E-14
1196.000  1.015E-14
1196.200  1.023E-14
1196.400  1.031E-14
1196.600  1.039E-14
1196.800  1.047E-14
1197.000  1.053E-14
1197.200  1.059E-14
1197.400  5.214E-14
1197.600  1.071E-14
1197.800  1.076E-14
1198.000  1.080E-14
1198.200  1.084E-14
1198.400  1.087E-14
1198.600  1.090E-14
1198.800  1.092E-14
1199.000  1.094E-14
1199.200  1.096E-14
1199.400  1.097E-14
1199.600  4.383E-14
1199.800  3.634E-14
1200.000  1.099E-14
1200.200  1.100E-14
1200.400  3.847E-14
1200.600  1.101E-14
1200.800  3.977E-14
1201.000  4.579E-14
1201.200  1.104E-14
1201.400  1.105E-14
1201.600  1.106E-14
1201.800  1.108E-14
1202.000  1.110E-14
1202.200  1.113E-14
1202.400  1.116E-14
1202.600  1.119E-14
1202.800  1.123E-14
1203.000  1.128E-14
1203.200  1.134E-14
1203.400  1.142E-14
1203.600  1.150E-14
1203.800  1.162E-14
1204.000  1.175E-14
1204.200  1.189E-14
1204.400  1.208E-14
1204.600  1.227E-14
1204.800  1.251E-14
1205.000  1.275E-14
1205.200  1.300E-14
1205.400  1.330E-14
1205.600  1.358E-14
1205.800  1.390E-14
1206.000  1.424E-14
1206.200  1.457E-14
1206.400  8.642E-13
1206.600  1.647E-12
1206.800  4.848E-13
1207.000  6.704E-14
1207.200  1.635E-14
1207.400  1.670E-14
1207.600  1.698E-14
1207.800  1.729E-14
1208.000  1.755E-14
1208.200  1.777E-14
1208.400  1.800E-14
1208.600  1.819E-14
1208.800  1.836E-14
1209.000  1.852E-14
1209.200  1.865E-14
1209.400  1.878E-14
1209.600  1.887E-14
1209.800  1.897E-14
1210.000  6.919E-14
1210.200  1.911E-14
1210.400  1.917E-14
1210.600  5.914E-14
1210.800  7.137E-14
1211.000  6.053E-14
1211.200  6.661E-14
1211.400  8.875E-14
1211.600  8.599E-14
1211.800  8.991E-14
1212.000  9.856E-14
1212.200  1.235E-13
1212.400  1.150E-13
1212.600  1.317E-13
1212.800  1.784E-13
1213.000  1.837E-13
1213.200  2.117E-13
1213.400  2.366E-13
1213.600  2.866E-13
1213.800  3.215E-13
1214.000  4.176E-13
1214.200  5.492E-13
1214.400  7.555E-13
1214.600  1.219E-12
1214.800  1.916E-12
1215.000  4.469E-12
1215.200  1.085E-11
1215.400  1.810E-11
1215.600  1.774E-11
1215.800  4.650E-12
1216.000  2.485E-11
1216.200  1.813E-11
1216.400  5.842E-12
1216.600  2.678E-12
1216.800  1.417E-12
1217.000  9.616E-13
1217.200  6.881E-13
1217.400  5.008E-13
1217.600  3.783E-13
1217.800  2.963E-13
1218.000  2.241E-13
1218.200  2.438E-13
1218.400  4.554E-13
1218.600  3.189E-13
1218.800  1.124E-13
1219.000  8.978E-14
1219.200  6.750E-14
1219.400  9.037E-14
1219.600  7.952E-14
1219.800  6.989E-14
1220.000  6.309E-14
1220.200  6.941E-14
1220.400  1.454E-14
1220.600  6.600E-14
1220.800  7.226E-14
1221.000  5.562E-14
1221.200  5.100E-14
1221.400  6.305E-14
1221.600  5.717E-14
1221.800  5.911E-14
1222.000  5.445E-14
1222.200  5.504E-14
1222.400  5.900E-14
1222.600  4.363E-14
1222.800  4.569E-14
1223.000  1.250E-14
1223.200  1.228E-14
1223.400  1.202E-14
1223.600  4.261E-14
1223.800  1.146E-14
1224.000  1.117E-14
1224.200  1.086E-14
1224.400  1.053E-14
1224.600  1.024E-14
1224.800  9.914E-15
1225.000  9.607E-15
1225.200  9.316E-15
1225.400  9.014E-15
1225.600  8.749E-15
1225.800  8.458E-15
1226.000  8.204E-15
1226.200  7.961E-15
1226.400  7.715E-15
1226.600  7.505E-15
1226.800  7.282E-15
1227.000  3.412E-14
1227.200  6.919E-15
1227.400  6.749E-15
1227.600  6.604E-15
1227.800  6.467E-15
1228.000  6.346E-15
1228.200  6.237E-15
1228.400  6.131E-15
1228.600  6.038E-15
1228.800  5.945E-15
1229.000  5.867E-15
1229.200  5.798E-15
1229.400  5.731E-15
1229.600  5.675E-15
1229.800  5.618E-15
1230.000  5.572E-15
1230.200  5.531E-15
1230.400  5.491E-15
1230.600  5.458E-15
1230.800  5.426E-15
1231.000  5.400E-15
1231.200  5.379E-15
1231.400  5.357E-15
1231.600  5.341E-15
1231.800  5.324E-15
1232.000  5.309E-15
1232.200  5.296E-15
1232.400  5.281E-15
1232.600  5.266E-15
1232.800  5.250E-15
1233.000  5.233E-15
1233.200  5.215E-15
1233.400  5.194E-15
1233.600  5.174E-15
1233.800  5.149E-15
1234.000  5.125E-15
1234.200  5.101E-15
1234.400  5.074E-15
1234.600  5.048E-15
1234.800  5.017E-15
1235.000  4.988E-15
1235.200  4.958E-15
1235.400  4.924E-15
1235.600  4.892E-15
1235.800  4.857E-15
1236.000  4.823E-15
1236.200  4.791E-15
1236.400  4.756E-15
1236.600  4.724E-15
1236.800  4.691E-15
1237.000  4.660E-15
1237.200  4.631E-15
1237.400  4.600E-15
1237.600  4.573E-15
1237.800  4.543E-15
1238.000  4.515E-15
1238.200  4.490E-15
1238.400  1.846E-14
1238.600  3.039E-14
1238.800  4.610E-13
1239.000  4.407E-13
1239.200  3.988E-14
1239.400  4.341E-15
1239.600  4.321E-15
1239.800  4.298E-15
1240.000  4.277E-15
1240.200  4.259E-15
1240.400  4.238E-15
1240.600  4.220E-15
1240.800  4.200E-15
1241.000  4.181E-15
1241.200  4.163E-15
1241.400  4.144E-15
1241.600  4.126E-15
1241.800  4.107E-15
1242.000  4.174E-14
1242.200  2.965E-14
1242.400  4.052E-15
1242.600  1.599E-14
1242.800  2.328E-13
1243.000  2.313E-13
1243.200  1.972E-14
1243.400  3.963E-15
1243.600  3.947E-15
1243.800  3.928E-15
1244.000  3.909E-15
1244.200  3.891E-15
1244.400  3.870E-15
1244.600  3.852E-15
1244.800  3.831E-15
1245.000  3.811E-15
1245.200  1.616E-14
1245.400  3.770E-15
1245.600  3.750E-15
1245.800  3.728E-15
1246.000  3.705E-15
1246.200  3.684E-15
1246.400  3.660E-15
1246.600  3.638E-15
1246.800  1.400E-14
1247.000  1.730E-14
1247.200  1.317E-14
1247.400  1.516E-14
1247.600  3.514E-15
1247.800  3.488E-15
1248.000  1.511E-14
1248.200  1.319E-14
1248.400  3.414E-15
1248.600  3.391E-15
1248.800  3.366E-15
1249.000  3.343E-15
1249.200  3.322E-15
1249.400  1.828E-14
1249.600  3.283E-15
1249.800  3.264E-15
1250.000  3.247E-15
1250.200  3.232E-15
1250.400  1.809E-14
1250.600  2.500E-14
1250.800  3.192E-15
1251.000  3.182E-15
1251.200  2.059E-14
1251.400  3.164E-15
1251.600  3.158E-15
1251.800  3.151E-15
1252.000  3.146E-15
1252.200  3.142E-15
1252.400  3.139E-15
1252.600  3.136E-15
1252.800  3.134E-15
1253.000  3.132E-15
1253.200  3.131E-15
1253.400  3.129E-15
1253.600  2.724E-14
1253.800  5.363E-14
1254.000  4.743E-14
1254.200  3.132E-15
1254.400  3.134E-15
1254.600  1.636E-14
1254.800  3.140E-15
1255.000  3.144E-15
1255.200  3.148E-15
1255.400  1.325E-14
1255.600  3.158E-15
1255.800  3.164E-15
1256.000  3.169E-15
1256.200  3.174E-15
1256.400  1.772E-14
1256.600  4.642E-14
1256.800  3.188E-15
1257.000  3.192E-15
1257.200  3.196E-15
1257.400  3.198E-15
1257.600  2.544E-14
1257.800  3.200E-15
1258.000  3.200E-15
1258.200  3.198E-15
1258.400  3.195E-15
1258.600  9.926E-15
1258.800  4.521E-14
1259.000  3.614E-14
1259.200  3.166E-15
1259.400  1.370E-14
1259.600  7.799E-14
1259.800  3.128E-15
1260.000  3.114E-15
1260.200  3.101E-15
1260.400  6.765E-14
1260.600  6.091E-14
1260.800  3.423E-14
1261.000  3.046E-15
1261.200  3.033E-15
1261.400  3.020E-15
1261.600  1.408E-14
1261.800  2.274E-14
1262.000  2.987E-15
1262.200  2.978E-15
1262.400  2.970E-15
1262.600  2.963E-15
1262.800  2.956E-15
1263.000  2.950E-15
1263.200  2.946E-15
1263.400  2.941E-15
1263.600  2.938E-15
1263.800  2.934E-15
1264.000  2.930E-15
1264.200  2.927E-15
1264.400  2.923E-15
1264.600  5.716E-14
1264.800  2.270E-13
1265.000  1.335E-13
1265.200  8.545E-14
1265.400  2.905E-15
1265.600  2.901E-15
1265.800  2.896E-15
1266.000  2.891E-15
1266.200  2.886E-15
1266.400  4.007E-14
1266.600  4.007E-14
1266.800  2.871E-15
1267.000  2.866E-15
1267.200  2.861E-15
1267.400  2.856E-15
1267.600  2.718E-14
1267.800  1.506E-14
1268.000  2.838E-15
1268.200  2.833E-15
1268.400  2.826E-15
1268.600  2.820E-15
1268.800  2.813E-15
1269.000  2.806E-15
1269.200  2.799E-15
1269.400  2.792E-15
1269.600  2.785E-15
1269.800  2.777E-15
1270.000  2.770E-15
1270.200  2.762E-15
1270.400  2.754E-15
1270.600  2.747E-15
1270.800  1.820E-14
1271.000  2.731E-15
1271.200  2.725E-15
1271.400  2.718E-15
1271.600  2.712E-15
1271.800  2.706E-15
1272.000  2.701E-15
1272.200  2.696E-15
1272.400  2.691E-15
1272.600  2.688E-15
1272.800  2.684E-15
1273.000  2.681E-15
1273.200  2.678E-15
1273.400  2.676E-15
1273.600  2.674E-15
1273.800  2.673E-15
1274.000  2.671E-15
1274.200  1.320E-14
1274.400  2.670E-15
1274.600  2.670E-15
1274.800  2.086E-14
1275.000  5.262E-14
1275.200  2.774E-14
1275.400  2.675E-15
1275.600  2.676E-15
1275.800  2.679E-15
1276.000  2.681E-15
1276.200  2.684E-15
1276.400  3.007E-14
1276.600  2.689E-15
1276.800  1.139E-14
1277.000  2.694E-15
1277.200  1.970E-14
1277.400  2.066E-14
1277.600  2.746E-14
1277.800  2.341E-14
1278.000  1.541E-14
1278.200  2.703E-15
1278.400  2.703E-15
1278.600  2.702E-15
1278.800  2.701E-15
1279.000  2.699E-15
1279.200  1.907E-14
1279.400  2.339E-14
1279.600  1.884E-14
1279.800  2.679E-15
1280.000  2.044E-14
1280.200  1.309E-14
1280.400  1.841E-14
1280.600  1.791E-14
1280.800  1.234E-14
1281.000  1.399E-14
1281.200  2.616E-15
1281.400  2.606E-15
1281.600  2.596E-15
1281.800  2.587E-15
1282.000  2.578E-15
1282.200  2.570E-15
1282.400  2.562E-15
1282.600  2.555E-15
1282.800  2.548E-15
1283.000  2.542E-15
1283.200  2.538E-15
1283.400  2.533E-15
1283.600  2.530E-15
1283.800  2.526E-15
1284.000  2.524E-15
1284.200  2.522E-15
1284.400  2.521E-15
1284.600  2.519E-15
1284.800  2.519E-15
1285.000  2.518E-15
1285.200  2.518E-15
1285.400  2.518E-15
1285.600  2.518E-15
1285.800  2.518E-15
1286.000  2.518E-15
1286.200  2.518E-15
1286.400  2.518E-15
1286.600  2.519E-15
1286.800  2.519E-15
1287.000  2.520E-15
1287.200  2.521E-15
1287.400  2.523E-15
1287.600  2.525E-15
1287.800  2.527E-15
1288.000  2.255E-14
1288.200  2.933E-14
1288.400  5.439E-14
1288.600  5.439E-14
1288.800  1.620E-14
1289.000  1.188E-14
1289.200  2.553E-15
1289.400  2.558E-15
1289.600  2.564E-15
1289.800  2.570E-15
1290.000  2.848E-14
1290.200  1.168E-14
1290.400  2.589E-15
1290.600  2.596E-15
1290.800  2.603E-15
1291.000  2.611E-15
1291.200  2.617E-15
1291.400  9.717E-15
1291.600  2.631E-15
1291.800  2.638E-15
1292.000  2.645E-15
1292.200  2.651E-15
1292.400  2.658E-15
1292.600  2.664E-15
1292.800  2.670E-15
1293.000  2.676E-15
1293.200  2.682E-15
1293.400  2.688E-15
1293.600  2.693E-15
1293.800  2.699E-15
1294.000  2.705E-15
1294.200  2.710E-15
1294.400  2.715E-15
1294.600  2.953E-14
1294.800  1.685E-14
1295.000  2.728E-15
1295.200  2.732E-15
1295.400  2.736E-15
1295.600  1.182E-14
1295.800  2.235E-14
1296.000  2.746E-15
1296.200  1.572E-14
1296.400  2.753E-15
1296.600  2.757E-15
1296.800  2.452E-14
1297.000  1.337E-14
1297.200  2.769E-15
1297.400  2.774E-15
1297.600  2.778E-15
1297.800  2.783E-15
1298.000  2.788E-15
1298.200  2.793E-15
1298.400  2.800E-15
1298.600  2.806E-15
1298.800  2.015E-14
1299.000  8.818E-14
1299.200  5.424E-14
1299.400  2.847E-15
1299.600  2.860E-15
1299.800  2.877E-15
1300.000  2.894E-15
1300.200  2.910E-15
1300.400  2.930E-15
1300.600  2.948E-15
1300.800  2.970E-15
1301.000  5.844E-14
1301.200  2.175E-14
1301.400  3.034E-15
1301.600  3.054E-15
1301.800  3.078E-15
1302.000  6.014E-14
1302.200  6.223E-13
1302.400  6.099E-13
1302.600  3.158E-15
1302.800  3.175E-15
1303.000  3.190E-15
1303.200  1.343E-14
1303.400  2.892E-14
1303.600  1.517E-14
1303.800  3.219E-15
1304.000  3.219E-15
1304.200  3.219E-15
1304.400  9.469E-14
1304.600  6.111E-14
1304.800  1.047E-12
1305.000  1.153E-12
1305.200  2.549E-14
1305.400  3.170E-15
1305.600  3.156E-15
1305.800  3.140E-15
1306.000  1.279E-12
1306.200  1.298E-12
1306.400  3.091E-15
1306.600  3.074E-15
1306.800  3.056E-15
1307.000  3.038E-15
1307.200  3.022E-15
1307.400  3.005E-15
1307.600  2.990E-15
1307.800  2.974E-15
1308.000  2.960E-15
1308.200  2.947E-15
1308.400  2.933E-15
1308.600  2.922E-15
1308.800  2.910E-15
1309.000  2.899E-15
1309.200  5.485E-14
1309.400  1.247E-13
1309.600  2.801E-14
1309.800  2.858E-15
1310.000  2.848E-15
1310.200  2.839E-15
1310.400  2.829E-15
1310.600  2.078E-14
1310.800  2.819E-14
1311.000  2.802E-15
1311.200  2.795E-15
1311.400  7.142E-14
1311.600  2.186E-14
1311.800  2.773E-15
1312.000  3.055E-14
1312.200  2.760E-15
1312.400  2.039E-14
1312.600  2.745E-15
1312.800  2.737E-15
1313.000  2.729E-15
1313.200  2.720E-15
1313.400  1.417E-14
1313.600  3.165E-14
1313.800  2.690E-15
1314.000  2.679E-15
1314.200  2.668E-15
1314.400  2.655E-15
1314.600  2.641E-15
1314.800  2.626E-15
1315.000  2.610E-15
1315.200  2.595E-15
1315.400  2.576E-15
1315.600  2.558E-15
1315.800  2.538E-15
1316.000  2.265E-14
1316.200  2.503E-15
1316.400  2.486E-15
1316.600  3.230E-14
1316.800  1.453E-14
1317.000  2.438E-15
1317.200  2.425E-15
1317.400  2.412E-15
1317.600  2.400E-15
1317.800  2.389E-15
1318.000  2.379E-15
1318.200  2.370E-15
1318.400  2.362E-15
1318.600  2.356E-15
1318.800  2.349E-15
1319.000  6.619E-14
1319.200  1.096E-14
1319.400  2.338E-15
1319.600  2.336E-15
1319.800  2.334E-15
1320.000  2.333E-15
1320.200  2.333E-15
1320.400  2.332E-15
1320.600  2.332E-15
1320.800  2.333E-15
1321.000  2.333E-15
1321.200  2.334E-15
1321.400  2.334E-15
1321.600  2.336E-15
1321.800  2.338E-15
1322.000  2.340E-15
1322.200  2.343E-15
1322.400  2.347E-15
1322.600  2.352E-15
1322.800  2.358E-15
1323.000  2.365E-15
1323.200  2.372E-15
1323.400  2.381E-15
1323.600  2.322E-14
1323.800  2.400E-15
1324.000  1.794E-14
1324.200  2.423E-15
1324.400  2.436E-15
1324.600  2.450E-15
1324.800  2.465E-15
1325.000  2.481E-15
1325.200  2.497E-15
1325.400  2.514E-15
1325.600  2.531E-15
1325.800  2.548E-15
1326.000  2.565E-15
1326.200  2.581E-15
1326.400  2.598E-15
1326.600  1.068E-14
1326.800  1.431E-14
1327.000  2.645E-15
1327.200  2.659E-15
1327.400  2.674E-15
1327.600  2.686E-15
1327.800  2.700E-15
1328.000  2.712E-15
1328.200  2.724E-15
1328.400  2.735E-15
1328.600  2.745E-15
1328.800  4.012E-14
1329.000  4.118E-14
1329.200  4.271E-14
1329.400  2.782E-15
1329.600  3.868E-14
1329.800  3.571E-14
1330.000  2.805E-15
1330.200  2.812E-15
1330.400  2.820E-15
1330.600  2.826E-15
1330.800  2.832E-15
1331.000  2.838E-15
1331.200  2.843E-15
1331.400  2.849E-15
1331.600  2.855E-15
1331.800  2.861E-15
1332.000  2.867E-15
1332.200  2.873E-15
1332.400  2.879E-15
1332.600  2.885E-15
1332.800  2.892E-15
1333.000  2.898E-15
1333.200  2.903E-15
1333.400  2.910E-15
1333.600  2.916E-15
1333.800  2.922E-15
1334.000  2.927E-15
1334.200  1.473E-14
1334.400  3.350E-13
1334.600  9.815E-13
1334.800  7.972E-13
1335.000  3.056E-14
1335.200  2.961E-15
1335.400  4.180E-14
1335.600  1.177E-12
1335.800  2.013E-12
1336.000  6.794E-13
1336.200  3.989E-14
1336.400  2.966E-15
1336.600  2.962E-15
1336.800  2.957E-15
1337.000  2.950E-15
1337.200  2.942E-15
1337.400  2.932E-15
1337.600  2.921E-15
1337.800  2.907E-15
1338.000  2.892E-15
1338.200  2.876E-15
1338.400  2.857E-15
1338.600  2.839E-15
1338.800  2.817E-15
1339.000  2.794E-15
1339.200  2.772E-15
1339.400  2.747E-15
1339.600  2.723E-15
1339.800  2.698E-15
1340.000  2.675E-15
1340.200  2.652E-15
1340.400  2.628E-15
1340.600  2.607E-15
1340.800  2.584E-15
1341.000  2.564E-15
1341.200  2.544E-15
1341.400  2.525E-15
1341.600  2.508E-15
1341.800  2.491E-15
1342.000  2.476E-15
1342.200  2.464E-15
1342.400  2.451E-15
1342.600  2.441E-15
1342.800  2.431E-15
1343.000  2.423E-15
1343.200  2.416E-15
1343.400  2.410E-15
1343.600  2.405E-15
1343.800  2.400E-15
1344.000  2.397E-15
1344.200  2.395E-15
1344.400  2.393E-15
1344.600  2.392E-15
1344.800  2.391E-15
1345.000  8.641E-15
1345.200  2.393E-15
1345.400  2.394E-15
1345.600  2.396E-15
1345.800  2.398E-15
1346.000  2.400E-15
1346.200  2.403E-15
1346.400  2.406E-15
1346.600  2.410E-15
1346.800  2.414E-15
1347.000  1.101E-14
1347.200  1.319E-14
1347.400  2.429E-15
1347.600  2.435E-15
1347.800  2.441E-15
1348.000  2.448E-15
1348.200  2.455E-15
1348.400  2.462E-15
1348.600  2.470E-15
1348.800  2.477E-15
1349.000  2.484E-15
1349.200  2.490E-15
1349.400  1.976E-14
1349.600  1.654E-14
1349.800  2.506E-15
1350.000  2.509E-15
1350.200  2.512E-15
1350.400  2.514E-15
1350.600  2.515E-15
1350.800  2.515E-15
1351.000  2.515E-15
1351.200  2.514E-15
1351.400  2.512E-15
1351.600  8.681E-14
1351.800  2.580E-13
1352.000  2.500E-15
1352.200  2.495E-15
1352.400  2.488E-15
1352.600  2.481E-15
1352.800  2.472E-15
1353.000  2.463E-15
1353.200  2.455E-15
1353.400  2.447E-15
1353.600  2.439E-15
1353.800  2.430E-15
1354.000  2.422E-15
1354.200  1.080E-14
1354.400  2.563E-14
1354.600  2.401E-15
1354.800  2.394E-15
1355.000  2.388E-15
1355.200  2.383E-15
1355.400  2.378E-15
1355.600  2.235E-13
1355.800  1.560E-13
1356.000  6.965E-14
1356.200  2.363E-15
1356.400  2.361E-15
1356.600  2.359E-15
1356.800  2.358E-15
1357.000  2.357E-15
1357.200  2.835E-14
1357.400  2.355E-15
1357.600  2.355E-15
1357.800  1.866E-14
1358.000  2.356E-15
1358.200  2.357E-15
1358.400  2.358E-15
1358.600  7.312E-14
1358.800  2.362E-15
1359.000  2.364E-15
1359.200  2.367E-15
1359.400  3.600E-14
1359.600  1.288E-14
1359.800  2.378E-15
1360.000  2.382E-15
1360.200  3.070E-14
1360.400  1.324E-14
1360.600  2.395E-15
1360.800  2.401E-15
1361.000  2.406E-15
1361.200  2.410E-15
1361.400  3.836E-14
1361.600  2.162E-14
1361.800  2.423E-15
1362.000  2.427E-15
1362.200  2.430E-15
1362.400  2.432E-15
1362.600  2.434E-15
1362.800  2.435E-15
1363.000  2.435E-15
1363.200  2.435E-15
1363.400  2.435E-15
1363.600  9.237E-15
1363.800  2.431E-15
1364.000  2.429E-15
1364.200  5.284E-14
1364.400  2.421E-15
1364.600  2.417E-15
1364.800  2.412E-15
1365.000  2.407E-15
1365.200  2.402E-15
1365.400  2.396E-15
1365.600  2.391E-15
1365.800  2.386E-15
1366.000  2.381E-15
1366.200  2.376E-15
1366.400  2.371E-15
1366.600  2.367E-15
1366.800  2.363E-15
1367.000  2.359E-15
1367.200  2.356E-15
1367.400  2.353E-15
1367.600  2.351E-15
1367.800  2.348E-15
1368.000  2.346E-15
1368.200  2.345E-15
1368.400  2.344E-15
1368.600  2.343E-15
1368.800  2.342E-15
1369.000  2.342E-15
1369.200  2.342E-15
1369.400  2.342E-15
1369.600  9.461E-15
1369.800  2.342E-15
1370.000  2.342E-15
1370.200  2.342E-15
1370.400  2.343E-15
1370.600  2.343E-15
1370.800  2.344E-15
1371.000  2.345E-15
1371.200  1.758E-14
1371.400  5.437E-14
1371.600  2.541E-14
1371.800  2.351E-15
1372.000  2.354E-15
1372.200  2.356E-15
1372.400  2.359E-15
1372.600  2.362E-15
1372.800  2.366E-15
1373.000  2.370E-15
1373.200  2.374E-15
1373.400  2.378E-15
1373.600  2.382E-15
1373.800  2.387E-15
1374.000  2.392E-15
1374.200  2.397E-15
1374.400  2.402E-15
1374.600  2.407E-15
1374.800  2.412E-15
1375.000  2.416E-15
1375.200  2.420E-15
1375.400  2.424E-15
1375.600  2.427E-15
1375.800  2.429E-15
1376.000  2.432E-15
1376.200  2.433E-15
1376.400  2.434E-15
1376.600  2.435E-15
1376.800  2.435E-15
1377.000  2.435E-15
1377.200  2.434E-15
1377.400  2.433E-15
1377.600  2.432E-15
1377.800  2.430E-15
1378.000  2.428E-15
1378.200  2.426E-15
1378.400  2.423E-15
1378.600  2.420E-15
1378.800  2.416E-15
1379.000  2.413E-15
1379.200  2.410E-15
1379.400  2.407E-15
1379.600  9.132E-15
1379.800  2.401E-15
1380.000  2.399E-15
1380.200  2.396E-15
1380.400  2.394E-15
1380.600  2.392E-15
1380.800  2.390E-15
1381.000  2.388E-15
1381.200  2.387E-15
1381.400  2.386E-15
1381.600  2.385E-15
1381.800  2.384E-15
1382.000  2.383E-15
1382.200  2.383E-15
1382.400  2.382E-15
1382.600  2.382E-15
1382.800  2.382E-15
1383.000  2.382E-15
1383.200  2.383E-15
1383.400  2.383E-15
1383.600  2.384E-15
1383.800  2.385E-15
1384.000  2.387E-15
1384.200  2.389E-15
1384.400  2.391E-15
1384.600  2.394E-15
1384.800  2.398E-15
1385.000  2.402E-15
1385.200  2.407E-15
1385.400  2.413E-15
1385.600  2.419E-15
1385.800  2.426E-15
1386.000  2.433E-15
1386.200  2.441E-15
1386.400  2.451E-15
1386.600  2.460E-15
1386.800  2.471E-15
1387.000  2.482E-15
1387.200  2.494E-15
1387.400  2.508E-15
1387.600  2.521E-15
1387.800  2.536E-15
1388.000  2.552E-15
1388.200  2.566E-15
1388.400  2.583E-15
1388.600  2.599E-15
1388.800  2.616E-15
1389.000  2.632E-15
1389.200  2.647E-15
1389.400  2.662E-15
1389.600  2.675E-15
1389.800  2.688E-15
1390.000  2.700E-15
1390.200  2.711E-15
1390.400  2.722E-15
1390.600  2.731E-15
1390.800  2.740E-15
1391.000  2.747E-15
1391.200  2.753E-15
1391.400  2.758E-15
1391.600  2.761E-15
1391.800  2.763E-15
1392.000  2.763E-15
1392.200  2.763E-15
1392.400  2.761E-15
1392.600  2.758E-15
1392.800  2.753E-15
1393.000  1.176E-14
1393.200  2.740E-15
1393.400  2.522E-14
1393.600  1.448E-13
1393.800  1.106E-12
1394.000  7.837E-13
1394.200  7.787E-14
1394.400  1.601E-14
1394.600  2.687E-15
1394.800  2.680E-15
1395.000  2.673E-15
1395.200  2.666E-15
1395.400  2.660E-15
1395.600  2.654E-15
1395.800  2.648E-15
1396.000  2.643E-15
1396.200  2.639E-15
1396.400  2.635E-15
1396.600  2.633E-15
1396.800  2.631E-15
1397.000  2.630E-15
1397.200  2.631E-15
1397.400  2.633E-15
1397.600  2.636E-15
1397.800  2.639E-15
1398.000  2.643E-15
1398.200  2.647E-15
1398.400  2.652E-15
1398.600  2.658E-15
1398.800  2.665E-15
1399.000  2.673E-15
1399.200  2.681E-15
1399.400  2.690E-15
1399.600  2.700E-15
1399.800  2.673E-14
1400.000  1.814E-14
1400.200  2.734E-15
1400.400  2.746E-15
1400.600  2.757E-15
1400.800  2.768E-15
1401.000  1.595E-14
1401.200  8.951E-14
1401.400  7.009E-14
1401.600  1.274E-14
1401.800  2.810E-15
1402.000  2.815E-15
1402.200  2.819E-15
1402.400  1.329E-14
1402.600  6.374E-14
1402.800  5.541E-13
1403.000  4.904E-13
1403.200  4.758E-14
1403.400  1.742E-14
1403.600  2.804E-15
1403.800  2.795E-15
1404.000  2.785E-15
1404.200  2.773E-15
1404.400  2.759E-15
1404.600  2.745E-15
1404.800  3.376E-14
1405.000  3.318E-14
1405.200  1.182E-14
1405.400  2.682E-15
1405.600  2.668E-15
1405.800  1.012E-14
1406.000  1.506E-14
1406.200  2.160E-14
1406.400  2.614E-15
1406.600  2.602E-15
1406.800  2.590E-15
1407.000  2.580E-15
1407.200  9.598E-15
1407.400  2.447E-14
1407.600  2.541E-14
1407.800  2.550E-15
1408.000  2.544E-15
1408.200  2.541E-15
1408.400  2.537E-15
1408.600  2.535E-15
1408.800  2.533E-15
1409.000  2.532E-15
1409.200  9.035E-15
1409.400  1.428E-14
1409.600  2.532E-15
1409.800  2.533E-15
1410.000  2.534E-15
1410.200  2.535E-15
1410.400  2.536E-15
1410.600  2.537E-15
1410.800  1.083E-14
1411.000  2.542E-15
1411.200  2.544E-15
1411.400  8.988E-15
1411.600  2.551E-15
1411.800  2.556E-15
1412.000  1.909E-14
1412.200  2.566E-15
1412.400  2.573E-15
1412.600  2.578E-15
1412.800  1.243E-14
1413.000  1.271E-14
1413.200  2.598E-15
1413.400  2.605E-15
1413.600  2.611E-15
1413.800  1.636E-14
1414.000  2.624E-15
1414.200  2.629E-15
1414.400  2.634E-15
1414.600  2.638E-15
1414.800  2.643E-15
1415.000  2.646E-15
1415.200  2.648E-15
1415.400  8.451E-15
1415.600  1.177E-14
1415.800  2.650E-15
1416.000  2.649E-15
1416.200  2.647E-15
1416.400  2.644E-15
1416.600  2.640E-15
1416.800  2.635E-15
1417.000  1.531E-14
1417.200  2.623E-15
1417.400  2.616E-15
1417.600  2.609E-15
1417.800  2.601E-15
1418.000  2.594E-15
1418.200  2.587E-15
1418.400  2.580E-15
1418.600  2.574E-15
1418.800  2.567E-15
1419.000  2.560E-15
1419.200  2.554E-15
1419.400  2.548E-15
1419.600  2.543E-15
1419.800  2.537E-15
1420.000  2.533E-15
1420.200  2.529E-15
1420.400  2.525E-15
1420.600  2.522E-15
1420.800  2.520E-15
1421.000  2.518E-15
1421.200  2.517E-15
1421.400  2.516E-15
1421.600  2.515E-15
1421.800  2.515E-15
1422.000  2.515E-15
1422.200  2.515E-15
1422.400  2.514E-15
1422.600  2.514E-15
1422.800  2.514E-15
1423.000  2.514E-15
1423.200  2.515E-15
1423.400  2.515E-15
1423.600  2.516E-15
1423.800  2.517E-15
1424.000  2.518E-15
1424.200  2.519E-15
1424.400  2.521E-15
1424.600  2.523E-15
1424.800  2.526E-15
1425.000  4.565E-14
1425.200  5.390E-14
1425.400  3.240E-14
1425.600  2.542E-15
1425.800  2.548E-15
1426.000  2.554E-15
1426.200  9.164E-15
1426.400  2.569E-15
1426.600  9.936E-15
1426.800  2.585E-15
1427.000  2.595E-15
1427.200  2.604E-15
1427.400  2.615E-15
1427.600  2.625E-15
1427.800  2.636E-15
1428.000  2.646E-15
1428.200  2.657E-15
1428.400  2.667E-15
1428.600  2.676E-15
1428.800  7.726E-15
1429.000  2.695E-15
1429.200  2.702E-15
1429.400  2.709E-15
1429.600  2.715E-15
1429.800  2.720E-15
1430.000  2.724E-15
1430.200  2.726E-15
1430.400  2.729E-15
1430.600  2.730E-15
1430.800  2.730E-15
1431.000  2.730E-15
1431.200  2.730E-15
1431.400  2.728E-15
1431.600  3.357E-14
1431.800  3.174E-14
1432.000  2.717E-15
1432.200  5.119E-14
1432.400  2.706E-15
1432.600  3.500E-14
1432.800  2.692E-15
1433.000  2.689E-15
1433.200  2.684E-15
1433.400  3.872E-14
1433.600  2.673E-15
1433.800  1.233E-14
1434.000  2.662E-15
1434.200  2.658E-15
1434.400  1.005E-14
1434.600  2.650E-15
1434.800  8.570E-15
1435.000  1.106E-14
1435.200  1.119E-14
1435.400  9.384E-15
1435.600  1.067E-14
1435.800  1.047E-14
1436.000  2.633E-15
1436.200  2.632E-15
1436.400  9.035E-15
1436.600  1.697E-14
1436.800  1.034E-14
1437.000  2.485E-14
1437.200  1.272E-14
1437.400  2.634E-15
1437.600  1.113E-14
1437.800  2.636E-15
1438.000  8.926E-15
1438.200  9.177E-15
1438.400  9.659E-15
1438.600  9.826E-15
1438.800  2.649E-15
1439.000  2.653E-15
1439.200  2.657E-15
1439.400  2.662E-15
1439.600  2.668E-15
1439.800  2.674E-15
1440.000  2.682E-15
1440.200  2.688E-15
1440.400  2.697E-15
1440.600  2.705E-15
1440.800  2.713E-15
1441.000  1.141E-14
1441.200  2.730E-15
1441.400  2.738E-15
1441.600  2.746E-15
1441.800  2.754E-15
1442.000  2.761E-15
1442.200  2.768E-15
1442.400  2.774E-15
1442.600  2.780E-15
1442.800  2.785E-15
1443.000  2.789E-15
1443.200  1.000E-14
1443.400  2.794E-15
1443.600  2.795E-15
1443.800  2.795E-15
1444.000  2.795E-15
1444.200  2.794E-15
1444.400  2.791E-15
1444.600  2.788E-15
1444.800  2.784E-15
1445.000  2.778E-15
1445.200  2.773E-15
1445.400  2.767E-15
1445.600  2.761E-15
1445.800  1.312E-14
1446.000  2.747E-15
1446.200  2.740E-15
1446.400  2.733E-15
1446.600  2.727E-15
1446.800  9.445E-15
1447.000  2.714E-15
1447.200  9.268E-15
1447.400  2.702E-15
1447.600  2.696E-15
1447.800  2.691E-15
1448.000  9.247E-15
1448.200  9.447E-15
1448.400  1.140E-14
1448.600  1.036E-14
1448.800  8.367E-15
1449.000  8.466E-15
1449.200  9.658E-15
1449.400  8.294E-15
1449.600  2.668E-15
1449.800  9.124E-15
1450.000  2.666E-15
1450.200  2.666E-15
1450.400  8.531E-15
1450.600  2.666E-15
1450.800  8.916E-15
1451.000  8.474E-15
1451.200  2.667E-15
1451.400  2.668E-15
1451.600  2.669E-15
1451.800  2.671E-15
1452.000  2.673E-15
1452.200  2.675E-15
1452.400  1.270E-14
1452.600  2.682E-15
1452.800  2.686E-15
1453.000  1.161E-14
1453.200  1.182E-14
1453.400  1.144E-14
1453.600  2.710E-15
1453.800  2.719E-15
1454.000  2.728E-15
1454.200  2.738E-15
1454.400  1.251E-14
1454.600  1.216E-14
1454.800  1.260E-14
1455.000  1.348E-14
1455.200  2.799E-15
1455.400  1.175E-14
1455.600  2.827E-15
1455.800  2.842E-15
1456.000  1.305E-14
1456.200  2.869E-15
1456.400  2.883E-15
1456.600  2.896E-15
1456.800  2.908E-15
1457.000  2.920E-15
1457.200  2.930E-15
1457.400  9.297E-15
1457.600  2.947E-15
1457.800  2.953E-15
1458.000  2.958E-15
1458.200  2.962E-15
1458.400  2.964E-15
1458.600  2.965E-15
1458.800  2.965E-15
1459.000  2.238E-14
1459.200  2.833E-14
1459.400  1.448E-14
1459.600  2.955E-15
1459.800  2.950E-15
1460.000  2.943E-15
1460.200  2.936E-15
1460.400  2.928E-15
1460.600  2.920E-15
1460.800  2.912E-15
1461.000  2.903E-15
1461.200  2.895E-15
1461.400  2.887E-15
1461.600  2.879E-15
1461.800  2.872E-15
1462.000  2.864E-15
1462.200  2.858E-15
1462.400  2.851E-15
1462.600  2.846E-15
1462.800  2.840E-15
1463.000  2.836E-15
1463.200  1.385E-14
1463.400  7.454E-14
1463.600  3.388E-14
1463.800  2.822E-15
1464.000  1.045E-14
1464.200  2.819E-15
1464.400  9.473E-15
1464.600  2.818E-15
1464.800  2.818E-15
1465.000  1.200E-14
1465.200  1.376E-14
1465.400  2.820E-15
1465.600  1.071E-14
1465.800  2.824E-15
1466.000  2.826E-15
1466.200  2.828E-15
1466.400  2.832E-15
1466.600  2.835E-15
1466.800  1.066E-14
1467.000  1.337E-14
1467.200  1.369E-14
1467.400  4.669E-14
1467.600  4.506E-14
1467.800  1.747E-14
1468.000  2.965E-14
1468.200  2.892E-15
1468.400  3.675E-14
1468.600  3.625E-14
1468.800  2.928E-15
1469.000  2.941E-15
1469.200  2.954E-15
1469.400  2.968E-15
1469.600  2.981E-15
1469.800  2.995E-15
1470.000  3.008E-15
1470.200  4.387E-14
1470.400  3.033E-15
1470.600  3.045E-15
1470.800  3.056E-15
1471.000  3.066E-15
1471.200  3.075E-15
1471.400  3.084E-15
1471.600  3.090E-15
1471.800  1.060E-14
1472.000  1.098E-14
1472.200  3.100E-15
1472.400  2.305E-14
1472.600  3.099E-15
1472.800  3.098E-15
1473.000  1.338E-13
1473.200  9.864E-14
1473.400  1.954E-14
1473.600  3.076E-15
1473.800  3.068E-15
1474.000  1.044E-13
1474.200  1.015E-13
1474.400  4.755E-14
1474.600  3.373E-14
1474.800  1.588E-14
1475.000  3.007E-15
1475.200  2.997E-15
1475.400  2.986E-15
1475.600  2.976E-15
1475.800  2.966E-15
1476.000  2.957E-15
1476.200  2.948E-15
1476.400  2.940E-15
1476.600  2.933E-15
1476.800  1.208E-14
1477.000  2.919E-15
1477.200  2.914E-15
1477.400  1.232E-14
1477.600  2.906E-15
1477.800  9.806E-15
1478.000  1.198E-14
1478.200  2.898E-15
1478.400  2.897E-15
1478.600  2.896E-15
1478.800  2.895E-15
1479.000  1.102E-14
1479.200  2.896E-15
1479.400  2.897E-15
1479.600  1.024E-14
1479.800  2.901E-15
1480.000  1.200E-14
1480.200  9.671E-15
1480.400  2.911E-15
1480.600  1.087E-14
1480.800  2.920E-15
1481.000  1.177E-14
1481.200  2.439E-14
1481.400  2.939E-15
1481.600  1.624E-14
1481.800  8.949E-14
1482.000  4.448E-14
1482.200  2.977E-15
1482.400  1.013E-14
1482.600  3.003E-15
1482.800  1.340E-14
1483.000  3.592E-14
1483.200  5.275E-14
1483.400  3.110E-14
1483.600  3.082E-15
1483.800  3.102E-15
1484.000  3.120E-15
1484.200  3.137E-15
1484.400  3.157E-15
1484.600  3.174E-15
1484.800  3.193E-15
1485.000  3.210E-15
1485.200  1.359E-14
1485.400  3.243E-15
1485.600  4.004E-14
1485.800  4.369E-14
1486.000  3.285E-15
1486.200  1.272E-14
1486.400  1.630E-14
1486.600  3.250E-14
1486.800  1.598E-14
1487.000  3.324E-15
1487.200  3.819E-14
1487.400  1.945E-14
1487.600  3.326E-15
1487.800  3.325E-15
1488.000  3.322E-15
1488.200  3.317E-15
1488.400  3.310E-15
1488.600  3.303E-15
1488.800  1.258E-14
1489.000  3.284E-15
1489.200  3.273E-15
1489.400  1.061E-14
1489.600  1.061E-14
1489.800  3.235E-15
1490.000  3.221E-15
1490.200  1.346E-14
1490.400  3.194E-15
1490.600  1.344E-14
1490.800  3.167E-15
1491.000  3.155E-15
1491.200  3.144E-15
1491.400  1.197E-14
1491.600  1.279E-14
1491.800  3.113E-15
1492.000  3.105E-15
1492.200  3.097E-15
1492.400  3.090E-15
1492.600  1.894E-14
1492.800  3.419E-14
1493.000  1.163E-14
1493.200  1.179E-14
1493.400  1.374E-14
1493.600  1.075E-14
1493.800  3.062E-15
1494.000  1.136E-14
1494.200  3.060E-15
1494.400  1.135E-14
1494.600  2.205E-14
1494.800  1.207E-14
1495.000  9.033E-15
1495.200  3.067E-15
1495.400  3.070E-15
1495.600  3.072E-15
1495.800  3.075E-15
1496.000  3.079E-15
1496.200  1.262E-14
1496.400  1.094E-14
1496.600  3.091E-15
1496.800  3.097E-15
1497.000  3.103E-15
1497.200  1.047E-14
1497.400  1.184E-14
1497.600  1.168E-14
1497.800  3.133E-15
1498.000  3.142E-15
1498.200  1.317E-14
1498.400  3.162E-15
1498.600  3.172E-15
1498.800  3.184E-15
1499.000  3.196E-15
1499.200  3.208E-15
1499.400  1.264E-14
1499.600  3.233E-15
1499.800  3.247E-15
1500.000  1.337E-14
1500.200  3.272E-15
1500.400  3.285E-15
1500.600  3.296E-15
1500.800  3.309E-15
1501.000  3.320E-15
1501.200  3.331E-15
1501.400  1.211E-14
1501.600  3.350E-15
1501.800  1.447E-14
1502.000  3.366E-15
1502.200  3.372E-15
1502.400  1.365E-14
1502.600  3.381E-15
1502.800  3.385E-15
1503.000  3.386E-15
1503.200  3.387E-15
1503.400  3.387E-15
1503.600  3.386E-15
1503.800  1.519E-14
1504.000  3.382E-15
1504.200  3.378E-15
1504.400  3.374E-15
1504.600  3.369E-15
1504.800  3.364E-15
1505.000  3.359E-15
1505.200  1.139E-14
1505.400  1.149E-14
1505.600  3.342E-15
1505.800  1.284E-14
1506.000  3.330E-15
1506.200  3.325E-15
1506.400  3.319E-15
1506.600  3.314E-15
1506.800  3.309E-15
1507.000  1.569E-14
1507.200  1.176E-14
1507.400  1.524E-14
1507.600  3.293E-15
1507.800  1.084E-14
1508.000  3.287E-15
1508.200  1.327E-14
1508.400  1.355E-14
1508.600  3.282E-15
1508.800  1.212E-14
1509.000  1.087E-14
1509.200  1.210E-14
1509.400  1.103E-14
1509.600  1.110E-14
1509.800  1.238E-14
1510.000  1.382E-14
1510.200  1.157E-14
1510.400  1.174E-14
1510.600  1.006E-14
1510.800  2.302E-14
1511.000  5.557E-14
1511.200  4.470E-14
1511.400  9.409E-15
1511.600  1.380E-14
1511.800  1.274E-14
1512.000  1.551E-14
1512.200  1.253E-14
1512.400  1.230E-14
1512.600  1.292E-14
1512.800  1.290E-14
1513.000  1.239E-14
1513.200  2.116E-14
1513.400  3.425E-15
1513.600  3.440E-15
1513.800  1.312E-14
1514.000  3.472E-15
1514.200  1.666E-14
1514.400  1.206E-14
1514.600  3.523E-15
1514.800  3.540E-15
1515.000  3.557E-15
1515.200  1.544E-14
1515.400  1.573E-14
1515.600  3.604E-15
1515.800  3.619E-15
1516.000  3.632E-15
1516.200  1.830E-14
1516.400  3.656E-15
1516.600  3.666E-15
1516.800  1.340E-14
1517.000  1.287E-14
1517.200  3.690E-15
1517.400  3.696E-15
1517.600  3.699E-15
1517.800  3.701E-15
1518.000  1.756E-14
1518.200  3.701E-15
1518.400  1.668E-14
1518.600  1.499E-14
1518.800  3.693E-15
1519.000  3.688E-15
1519.200  3.682E-15
1519.400  3.674E-15
1519.600  3.667E-15
1519.800  3.658E-15
1520.000  1.539E-14
1520.200  1.539E-14
1520.400  3.629E-15
1520.600  3.620E-15
1520.800  1.392E-14
1521.000  3.599E-15
1521.200  3.590E-15
1521.400  1.449E-14
1521.600  1.337E-14
1521.800  3.563E-15
1522.000  1.452E-14
1522.200  3.548E-15
1522.400  1.295E-14
1522.600  1.499E-14
1522.800  1.272E-14
1523.000  1.334E-14
1523.200  1.316E-14
1523.400  1.387E-14
1523.600  3.513E-15
1523.800  1.153E-14
1524.000  1.990E-14
1524.200  3.507E-15
1524.400  1.327E-14
1524.600  3.507E-15
1524.800  1.326E-14
1525.000  1.557E-14
1525.200  1.378E-14
1525.400  1.602E-14
1525.600  3.518E-15
1525.800  1.529E-14
1526.000  1.808E-14
1526.200  1.628E-14
1526.400  3.539E-15
1526.600  7.734E-14
1526.800  2.674E-13
1527.000  8.405E-14
1527.200  3.572E-15
1527.400  2.617E-14
1527.600  2.501E-14
1527.800  1.237E-14
1528.000  3.612E-15
1528.200  3.629E-15
1528.400  1.643E-14
1528.600  1.330E-14
1528.800  1.212E-14
1529.000  1.407E-14
1529.200  1.744E-14
1529.400  1.560E-14
1529.600  2.246E-14
1529.800  3.755E-15
1530.000  3.773E-15
1530.200  3.789E-15
1530.400  3.807E-15
1530.600  3.823E-15
1530.800  1.634E-14
1531.000  1.835E-14
1531.200  1.909E-14
1531.400  3.885E-15
1531.600  1.957E-14
1531.800  3.912E-15
1532.000  3.925E-15
1532.200  3.936E-15
1532.400  3.946E-15
1532.600  2.646E-14
1532.800  3.005E-14
1533.000  2.391E-14
1533.200  3.975E-15
1533.400  2.980E-13
1533.600  2.980E-13
1533.800  2.150E-14
1534.000  3.984E-15
1534.200  2.021E-14
1534.400  1.654E-14
1534.600  1.778E-14
1534.800  2.472E-14
1535.000  2.188E-14
1535.200  2.059E-14
1535.400  3.954E-15
1535.600  1.650E-14
1535.800  3.936E-15
1536.000  1.762E-14
1536.200  1.851E-14
1536.400  1.502E-14
1536.600  3.895E-15
1536.800  3.883E-15
1537.000  1.907E-14
1537.200  1.947E-14
1537.400  2.823E-14
1537.600  3.138E-14
1537.800  3.466E-14
1538.000  4.053E-14
1538.200  3.810E-15
1538.400  3.801E-15
1538.600  1.422E-14
1538.800  3.785E-15
1539.000  1.867E-14
1539.200  3.772E-15
1539.400  3.767E-15
1539.600  3.762E-15
1539.800  1.686E-14
1540.000  3.755E-15
1540.200  3.752E-15
1540.400  1.632E-14
1540.600  1.812E-14
1540.800  4.589E-14
1541.000  4.375E-14
1541.200  1.981E-14
1541.400  2.396E-14
1541.600  2.685E-14
1541.800  2.033E-14
1542.000  3.759E-15
1542.200  8.016E-14
1542.400  5.374E-14
1542.600  2.326E-14
1542.800  3.780E-15
1543.000  3.786E-15
1543.200  3.793E-15
1543.400  3.802E-15
1543.600  3.811E-15
1543.800  3.746E-14
1544.000  2.839E-14
1544.200  1.523E-14
1544.400  3.862E-15
1544.600  3.018E-14
1544.800  2.687E-14
1545.000  3.918E-15
1545.200  3.706E-14
1545.400  2.451E-14
1545.600  4.985E-14
1545.800  2.279E-14
1546.000  4.046E-15
1546.200  4.073E-15
1546.400  4.103E-15
1546.600  4.113E-15
1546.800  2.417E-14
1547.000  4.187E-15
1547.200  4.213E-15
1547.400  2.961E-14
1547.600  2.322E-14
1547.800  4.674E-14
1548.000  2.216E-13
1548.200  2.140E-12
1548.400  2.269E-12
1548.600  3.823E-13
1548.800  6.167E-14
1549.000  4.411E-15
1549.200  2.528E-14
1549.400  4.427E-15
1549.600  4.430E-15
1549.800  4.430E-15
1550.000  4.428E-15
1550.200  2.609E-14
1550.400  3.252E-14
1550.600  1.593E-13
1550.800  1.196E-12
1551.000  1.100E-12
1551.200  1.559E-13
1551.400  7.660E-14
1551.600  4.321E-15
1551.800  2.670E-14
1552.000  4.137E-14
1552.200  4.504E-14
1552.400  3.923E-14
1552.600  4.221E-15
1552.800  4.200E-15
1553.000  2.904E-14
1553.200  4.161E-15
1553.400  2.803E-14
1553.600  1.707E-14
1553.800  4.107E-15
1554.000  4.091E-15
1554.200  4.077E-15
1554.400  4.064E-15
1554.600  4.054E-15
1554.800  5.160E-14
1555.000  4.037E-15
1555.200  4.031E-15
1555.400  4.027E-15
1555.600  2.555E-14
1555.800  2.826E-14
1556.000  4.018E-15
1556.200  3.227E-14
1556.400  4.016E-15
1556.600  4.059E-14
1556.800  4.017E-15
1557.000  4.018E-15
1557.200  4.019E-15
1557.400  1.855E-14
1557.600  1.648E-14
1557.800  4.029E-15
1558.000  4.034E-15
1558.200  1.525E-14
1558.400  3.402E-14
1558.600  2.404E-14
1558.800  2.072E-14
1559.000  2.533E-14
1559.200  4.730E-14
1559.400  3.866E-14
1559.600  2.241E-14
1559.800  2.529E-14
1560.000  4.166E-15
1560.200  6.238E-14
1560.400  2.480E-13
1560.600  9.923E-14
1560.800  2.302E-13
1561.000  7.702E-14
1561.200  2.768E-14
1561.400  3.232E-13
1561.600  3.235E-13
1561.800  3.352E-14
1562.000  4.246E-14
1562.200  4.400E-14
1562.400  4.494E-15
1562.600  4.521E-15
1562.800  4.551E-15
1563.000  4.576E-15
1563.200  4.598E-15
1563.400  2.996E-14
1563.600  4.638E-15
1563.800  4.996E-14
1564.000  4.773E-14
1564.200  4.682E-15
1564.400  4.693E-15
1564.600  3.824E-14
1564.800  4.402E-14
1565.000  4.710E-15
1565.200  4.710E-15
1565.400  2.681E-14
1565.600  4.711E-15
1565.800  4.708E-15
1566.000  4.703E-15
1566.200  4.696E-15
1566.400  4.686E-15
1566.600  4.674E-15
1566.800  3.516E-14
1567.000  3.280E-14
1567.200  4.624E-15
1567.400  4.603E-15
1567.600  4.584E-15
1567.800  4.200E-14
1568.000  2.464E-14
1568.200  4.871E-14
1568.400  4.279E-14
1568.600  4.474E-15
1568.800  4.450E-15
1569.000  4.429E-15
1569.200  4.407E-15
1569.400  3.757E-14
1569.600  4.362E-15
1569.800  4.269E-14
1570.000  2.374E-14
1570.200  2.848E-14
1570.400  3.709E-14
1570.600  4.252E-15
1570.800  4.229E-15
1571.000  4.209E-15
1571.200  3.912E-14
1571.400  5.817E-14
1571.600  5.817E-14
1571.800  3.359E-14
1572.000  2.888E-14
1572.200  4.112E-15
1572.400  4.099E-15
1572.600  4.088E-15
1572.800  1.912E-14
1573.000  4.067E-15
1573.200  4.059E-15
1573.400  4.050E-15
1573.600  2.126E-14
1573.800  5.610E-14
1574.000  8.688E-14
1574.200  2.041E-14
1574.400  4.021E-15
1574.600  4.017E-15
1574.800  4.253E-14
1575.000  7.244E-14
1575.200  4.893E-14
1575.400  4.009E-15
1575.600  4.008E-15
1575.800  4.008E-15
1576.000  4.008E-15
1576.200  4.008E-15
1576.400  4.008E-15
1576.600  4.008E-15
1576.800  4.032E-14
1577.000  4.748E-14
1577.200  2.480E-14
1577.400  4.009E-15
1577.600  4.011E-15
1577.800  4.013E-15
1578.000  4.015E-15
1578.200  4.018E-15
1578.400  1.765E-14
1578.600  1.757E-14
1578.800  4.032E-15
1579.000  4.038E-15
1579.200  4.045E-15
1579.400  4.055E-15
1579.600  4.065E-15
1579.800  4.078E-15
1580.000  4.092E-15
1580.200  4.107E-15
1580.400  2.784E-14
1580.600  2.324E-14
1580.800  4.404E-14
1581.000  4.180E-15
1581.200  4.198E-15
1581.400  3.246E-14
1581.600  4.240E-15
1581.800  4.252E-15
1582.200  4.277E-15
1582.400  4.298E-15
1582.600  4.316E-15
1582.800  4.337E-15
1583.000  4.355E-15
1583.200  4.372E-15
1583.400  4.390E-15
1583.600  4.405E-15
1583.800  2.176E-14
1584.000  4.435E-15
1584.200  4.445E-15
1584.400  4.187E-14
1584.600  4.461E-15
1584.800  4.466E-15
1585.000  3.934E-14
1585.200  2.209E-14
1585.400  4.465E-15
1585.600  4.462E-15
1585.800  4.457E-15
1586.000  2.399E-14
1586.200  2.785E-14
1586.400  4.435E-15
1586.600  4.427E-15
1586.800  3.108E-14
1587.000  2.322E-14
1587.200  4.398E-15
1587.400  4.387E-15
1587.600  4.377E-15
1587.800  2.668E-14
1588.000  4.355E-15
1588.200  2.098E-14
1588.400  1.317E-13
1588.600  4.325E-15
1588.800  4.315E-15
1589.000  4.306E-15
1589.200  2.045E-14
1589.400  4.290E-15
1589.600  4.283E-15
1589.800  4.278E-15
1590.000  4.273E-15
1590.200  1.826E-14
1590.400  4.268E-15
1590.600  3.174E-14
1590.800  4.266E-15
1591.000  4.265E-15
1591.200  2.684E-14
1591.400  4.266E-15
1591.600  4.267E-15
1591.800  4.268E-15
1592.000  4.270E-15
1592.200  4.272E-15
1592.400  6.367E-14
1592.600  8.119E-14
1592.800  4.281E-15
1593.000  4.285E-15
1593.200  4.289E-15
1593.400  4.294E-15
1593.600  4.299E-15
1593.800  4.305E-15
1594.000  4.311E-15
1594.200  4.317E-15
1594.400  4.325E-15
1594.600  9.949E-14
1594.800  3.821E-14
1595.000  8.868E-14
1595.200  3.605E-14
1595.400  4.375E-15
1595.600  4.388E-15
1595.800  4.807E-14
1596.000  1.757E-14
1596.200  4.437E-15
1596.400  4.456E-15
1596.600  4.476E-15
1596.800  4.498E-15
1597.000  4.519E-15
1597.200  4.541E-15
1597.400  4.565E-15
1597.600  4.586E-15
1597.800  4.611E-15
1598.000  5.848E-14
1598.200  5.595E-14
1598.400  2.050E-14
1598.600  4.708E-15
1598.800  4.724E-15
1599.400  4.754E-15
1599.600  4.776E-15
1599.800  4.800E-15
1600.000  4.823E-15
1600.200  4.843E-15
1600.400  4.865E-15
1600.600  4.882E-15
1600.800  4.901E-15
1601.000  4.853E-14
1601.200  4.927E-15
1601.400  3.246E-14
1601.600  4.946E-15
1601.800  4.952E-15
1602.000  2.616E-14
1602.200  2.703E-14
1602.400  4.960E-15
1602.600  3.133E-14
1602.800  4.961E-15
1603.000  8.183E-14
1603.200  5.484E-14
1603.400  4.955E-15
1603.600  4.952E-15
1603.800  5.196E-14
1604.000  4.942E-15
1604.200  4.937E-15
1604.400  4.930E-15
1604.600  4.924E-15
1604.800  4.917E-15
1605.000  4.910E-15
1605.200  4.903E-15
1605.400  4.895E-15
1605.600  4.888E-15
1605.800  4.882E-15
1606.000  2.248E-14
1606.200  4.871E-15
1606.400  4.866E-15
1606.600  2.801E-14
1606.800  4.859E-15
1607.000  3.234E-14
1607.200  2.186E-14
1607.400  4.853E-15
1607.600  4.852E-15
1607.800  4.852E-15
1608.000  4.852E-15
1608.200  4.852E-15
1608.400  4.596E-14
1608.600  6.747E-14
1608.800  4.855E-15
1609.000  2.924E-14
1609.200  4.858E-15
1609.400  4.861E-15
1609.600  4.864E-15
1609.800  4.867E-15
1610.000  4.871E-15
1610.200  4.875E-15
1610.400  4.879E-15
1610.600  4.882E-15
1610.800  4.890E-15
1611.000  4.239E-14
1611.200  2.529E-14
1611.400  2.508E-14
1611.600  4.919E-15
1611.800  4.929E-15
1612.000  4.938E-15
1612.200  4.948E-15
1612.400  4.960E-15
1612.600  4.971E-15
1612.800  5.981E-14
1613.000  6.757E-14
1613.200  5.011E-15
1613.400  5.897E-14
1613.600  4.574E-14
1613.800  3.983E-14
1614.000  4.081E-14
1614.200  5.100E-15
1614.400  5.123E-15
1614.600  5.838E-14
1614.800  2.204E-14
1615.000  5.191E-15
1615.200  5.215E-15
1615.400  5.241E-15
1615.600  5.265E-15
1615.800  5.291E-15
1616.000  5.316E-15
1616.200  5.330E-15
1617.000  5.358E-15
1617.200  5.378E-15
1617.400  5.400E-15
1617.600  5.418E-15
1617.800  5.438E-15
1618.000  5.457E-15
1618.200  5.474E-15
1618.400  3.991E-14
1618.600  6.226E-14
1618.800  5.519E-15
1619.000  5.530E-15
1619.200  5.537E-15
1619.400  5.543E-15
1619.600  5.546E-15
1619.800  5.547E-15
1620.000  5.547E-15
1620.200  2.497E-14
1620.400  5.541E-15
1620.600  2.463E-14
1620.800  5.527E-15
1621.000  5.516E-15
1621.200  5.506E-15
1621.400  5.493E-15
1621.600  2.322E-14
1621.800  6.195E-14
1622.000  4.971E-14
1622.200  5.442E-15
1622.400  5.428E-15
1622.600  5.415E-15
1622.800  5.401E-15
1623.000  6.247E-14
1623.200  3.218E-14
1623.400  5.361E-15
1623.600  5.349E-15
1623.800  3.213E-14
1624.000  5.324E-15
1624.200  5.314E-15
1624.400  5.304E-15
1624.600  5.296E-15
1624.800  5.288E-15
1625.000  5.282E-15
1625.200  5.277E-15
1625.400  5.273E-15
1625.600  5.089E-14
1625.800  3.106E-14
1626.000  5.157E-14
1626.200  5.265E-15
1626.400  5.265E-15
1626.600  5.265E-15
1626.800  5.265E-15
1627.000  5.266E-15
1627.200  5.266E-15
1627.400  2.713E-14
1627.600  2.616E-14
1627.800  5.269E-15
1628.000  5.271E-15
1628.200  5.272E-15
1628.400  5.274E-15
1628.600  5.276E-15
1628.800  5.278E-15
1629.000  5.280E-15
1629.200  6.449E-14
1629.400  4.391E-14
1629.600  6.851E-14
1629.800  5.291E-15
1630.000  7.159E-14
1630.200  4.491E-14
1630.400  5.297E-15
1630.600  5.299E-15
1630.800  5.300E-15
1631.000  5.302E-15
1631.200  5.755E-14
1631.400  2.166E-14
1631.600  5.305E-15
1631.800  5.305E-15
1632.000  5.305E-15
1632.200  5.305E-15
1632.400  5.305E-15
1632.600  2.908E-14
1632.800  1.084E-13
1633.000  5.301E-15
1633.200  2.381E-14
1633.400  2.942E-14
1633.600  5.294E-15
1633.800  5.291E-15
1634.000  5.287E-15
1634.200  5.283E-15
1634.400  5.278E-15
1634.600  5.274E-15
1634.800  5.268E-15
1635.000  5.262E-15
1635.200  5.256E-15
1635.400  3.063E-14
1635.600  3.257E-14
1635.800  5.233E-15
1636.000  5.224E-15
1636.200  5.215E-15
1636.400  4.854E-14
1636.600  5.195E-15
1636.800  5.185E-15
1637.000  5.174E-15
1637.200  5.162E-15
1637.400  4.834E-14
1637.600  4.759E-14
1637.800  5.125E-15
1638.000  5.111E-15
1638.200  5.099E-15
1638.400  5.084E-15
1638.600  5.071E-15
1638.800  5.056E-15
1639.000  5.042E-15
1639.200  5.029E-15
1639.400  3.666E-14
1639.600  3.799E-14
1639.800  4.987E-15
1640.000  2.469E-14
1640.200  2.595E-13
1640.400  2.030E-12
1640.600  1.997E-12
1640.800  5.577E-13
1641.000  7.562E-14
1641.200  1.785E-14
1641.400  3.606E-14
1641.600  4.881E-15
1641.800  2.338E-14
1642.000  4.862E-15
1642.200  4.852E-15
1642.400  4.844E-15
1642.600  4.835E-15
1642.800  4.827E-15
1643.000  4.819E-15
1643.200  4.813E-15
1643.400  4.805E-15
1643.600  9.374E-14
1643.800  6.571E-14
1644.000  4.788E-15
1644.200  4.784E-15
1644.400  4.779E-15
1644.600  4.775E-15
1644.800  4.771E-15
1645.000  1.890E-14
1645.200  2.095E-14
1645.400  4.762E-15
1645.600  4.760E-15
1645.800  4.758E-15
1646.000  4.757E-15
1646.200  4.756E-15
1646.400  4.755E-15
1646.600  4.754E-15
1646.800  4.754E-15
1647.000  4.754E-15
1647.200  3.182E-14
1647.400  1.961E-14
1647.600  4.757E-15
1647.800  4.759E-15
1648.000  4.762E-15
1648.200  4.764E-15
1648.400  4.767E-15
1648.600  4.771E-15
1648.800  4.776E-15
1649.000  4.780E-15
1649.200  4.785E-15
1649.400  4.186E-14
1649.600  4.474E-14
1649.800  1.929E-14
1650.000  4.807E-15
1650.200  4.812E-15
1650.400  4.819E-15
1650.600  4.825E-15
1650.800  4.832E-15
1651.000  4.838E-15
1651.200  4.845E-15
1651.400  4.853E-15
1651.600  4.859E-15
1651.800  4.867E-15
1652.000  4.875E-15
1652.200  4.882E-15
1652.400  4.891E-15
1652.600  4.898E-15
1652.800  4.907E-15
1653.000  4.915E-15
1653.200  4.923E-15
1653.400  4.932E-15
1653.600  4.941E-15
1653.800  3.207E-14
1654.000  3.858E-14
1654.200  3.199E-14
1654.400  3.319E-14
1654.600  4.734E-14
1654.800  4.908E-14
1655.000  4.999E-15
1655.200  2.438E-14
1655.400  5.013E-15
1655.600  5.018E-15
1655.800  5.023E-15
1656.000  2.325E-14
1656.200  3.815E-13
1656.400  4.951E-13
1656.600  1.201E-13
1656.800  1.481E-13
1657.000  4.092E-13
1657.200  3.785E-13
1657.400  4.428E-13
1657.600  4.428E-13
1657.800  1.312E-13
1658.000  3.564E-13
1658.200  4.133E-13
1658.400  3.062E-13
1658.600  2.791E-14
1658.800  5.731E-14
1659.000  4.885E-14
1659.200  5.039E-15
1659.400  3.971E-14
1659.600  8.999E-14
1659.800  5.179E-14
1660.000  1.994E-14
1660.200  2.073E-14
1660.400  5.030E-15
1660.600  5.028E-15
1660.800  2.348E-14
1661.000  3.295E-14
1661.200  5.021E-15
1661.400  1.964E-14
1661.600  1.651E-14
1661.800  5.013E-15
1662.000  1.669E-14
1662.200  1.669E-14
1662.400  2.326E-14
1662.600  3.272E-14
1662.800  4.759E-14
1663.000  4.997E-15
1663.200  3.796E-14
1663.400  4.828E-14
1663.600  4.993E-15
1663.800  2.094E-14
1664.000  1.664E-14
1664.200  4.991E-15
1664.400  4.992E-15
1664.600  4.993E-15
1664.800  4.994E-15
1665.000  2.071E-14
1665.200  4.996E-15
1665.400  4.998E-15
1665.600  5.001E-15
1665.800  5.003E-15
1666.000  1.667E-14
1666.200  5.386E-14
1666.400  4.988E-14
1666.600  1.815E-14
1666.800  7.372E-14
1667.000  5.020E-15
1667.200  5.023E-15
1667.400  5.027E-15
1667.600  5.030E-15
1667.800  5.034E-15
1668.000  5.037E-15
1668.200  5.041E-15
1668.400  5.045E-15
1668.600  2.417E-14
1668.800  5.052E-15
1669.000  5.056E-15
1669.200  5.061E-15
1669.400  5.065E-15
1669.600  5.069E-15
1669.800  2.505E-14
1670.000  5.078E-15
1670.200  5.082E-15
1670.400  5.086E-15
1670.600  9.343E-14
1670.800  6.920E-13
1671.000  9.144E-13
1671.200  5.103E-15
1671.400  5.107E-15
1671.600  5.111E-15
1671.800  5.115E-15
1672.000  5.118E-15
1672.200  5.121E-15
1672.400  5.125E-15
1672.600  5.128E-15
1672.800  5.130E-15
1673.000  5.132E-15
1673.200  5.133E-15
1673.400  5.135E-15
1673.600  5.136E-15
1673.800  5.137E-15
1674.000  5.137E-15
1674.200  3.507E-14
1674.400  6.335E-14
1674.600  2.179E-14
1674.800  2.785E-14
1675.000  5.139E-15
1675.200  3.655E-14
1675.400  3.875E-14
1675.600  5.139E-15
1675.800  5.139E-15
1676.000  5.138E-15
1676.200  5.138E-15
1676.400  5.138E-15
1676.600  5.137E-15
1676.800  2.349E-14
1677.000  4.560E-14
1677.200  5.135E-15
1677.400  5.134E-15
1677.600  5.133E-15
1677.800  5.132E-15
1678.000  5.131E-15
1678.200  5.130E-15
1678.400  5.129E-15
1678.600  5.127E-15
1678.800  5.126E-15
1679.000  5.125E-15
1679.200  5.124E-15
1679.400  2.383E-14
1679.600  2.444E-14
1679.800  5.120E-15
1680.000  1.855E-14
1680.200  5.118E-15
1680.400  5.117E-15
1680.600  5.116E-15
1680.800  5.116E-15
1681.000  5.115E-15
1681.200  5.793E-14
1681.400  5.115E-15
1681.600  5.115E-15
1681.800  5.115E-15
1682.000  5.115E-15
1682.200  5.115E-15
1682.400  5.115E-15
1682.600  5.116E-15
1682.800  5.116E-15
1683.000  5.117E-15
1683.200  5.117E-15
1683.400  2.372E-14
1683.600  5.118E-15
1683.800  5.119E-15
1684.000  5.120E-15
1684.200  5.121E-15
1684.400  5.123E-15
1684.600  5.125E-15
1684.800  5.127E-15
1685.000  5.129E-15
1685.200  5.132E-15
1685.400  5.135E-15
1685.600  5.139E-15
1685.800  2.446E-14
1686.000  4.179E-14
1686.200  3.216E-14
1686.400  5.163E-15
1686.600  1.268E-13
1686.800  4.855E-14
1687.000  3.088E-14
1687.200  5.198E-15
1687.400  5.210E-15
1687.600  5.222E-15
1687.800  5.235E-15
1688.000  5.247E-15
1688.200  5.261E-15
1688.400  2.539E-14
1688.600  2.531E-14
1688.800  5.309E-15
1689.000  5.325E-15
1689.200  5.342E-15
1689.400  5.361E-15
1689.600  5.381E-15
1689.800  5.400E-15
1690.000  5.422E-15
1690.200  5.442E-15
1690.400  5.465E-15
1690.600  5.488E-15
1690.800  5.510E-15
1691.000  5.535E-15
1691.200  5.559E-15
1691.400  5.585E-15
1691.600  5.609E-15
1691.800  5.636E-15
1692.000  5.662E-15
1692.200  5.688E-15
1692.400  5.718E-15
1692.600  4.088E-14
1692.800  3.556E-14
1693.000  5.798E-15
1693.200  5.824E-15
1693.400  5.851E-15
1693.600  5.878E-15
1693.800  3.118E-14
1694.000  2.886E-14
1694.200  5.950E-15
1694.400  5.974E-15
1694.600  2.590E-14
1694.800  2.989E-14
1695.000  6.039E-15
1695.200  6.058E-15
1695.400  6.079E-15
1695.600  2.736E-14
1695.800  6.116E-15
1696.000  2.178E-14
1696.200  5.054E-14
1696.400  5.427E-14
1696.600  6.185E-15
1696.800  2.382E-13
1697.000  2.273E-13
1697.200  6.233E-15
1697.400  6.251E-15
1697.600  6.273E-15
1697.800  6.311E-15
1698.000  5.836E-14
1698.200  5.592E-14
1698.400  2.184E-14
1698.600  1.705E-14
1698.800  6.785E-15
1699.000  6.955E-15
1699.200  2.164E-14
1699.400  7.361E-15
1699.600  7.593E-15
1699.800  7.869E-15
1700.000  8.171E-15
1700.200  8.456E-15
1700.400  8.835E-15
1700.600  9.219E-15
1700.800  9.603E-15
1701.000  1.004E-14
1701.200  1.044E-14
1701.400  1.097E-14
1701.600  1.146E-14
1701.800  1.201E-14
1702.000  1.255E-14
1702.200  1.311E-14
1702.400  1.374E-14
1702.600  1.436E-14
1702.800  1.505E-14
1703.000  1.572E-14
1703.200  1.641E-14
1703.400  1.718E-14
1703.600  1.793E-14
1703.800  1.875E-14
1704.000  1.954E-14
1704.200  2.036E-14
1704.400  2.125E-14
1704.600  2.217E-14
1704.800  2.305E-14
1705.000  2.396E-14
1705.200  2.488E-14
1705.400  2.588E-14
1705.600  2.688E-14
1705.800  2.781E-14
1706.000  2.878E-14
1706.200  2.961E-14
1706.400  3.060E-14
1706.600  3.145E-14
1706.800  3.227E-14
1707.000  3.312E-14
1707.200  3.389E-14
1707.400  3.468E-14
1707.600  3.539E-14
1707.800  3.613E-14
1708.000  3.678E-14
1708.200  3.741E-14
1708.400  3.805E-14
1708.600  3.863E-14
1708.800  3.921E-14
1709.000  3.972E-14
1709.200  4.021E-14
1709.400  4.070E-14
1709.600  4.115E-14
1709.800  4.155E-14
1710.000  4.192E-14
1710.200  4.226E-14
1710.400  4.259E-14
1710.600  4.289E-14
1710.800  4.314E-14
1711.000  4.337E-14
1711.200  4.355E-14
1711.400  4.372E-14
1711.600  4.387E-14
1711.800  4.398E-14
1712.000  4.407E-14
1712.200  4.413E-14
1712.400  4.418E-14
1712.600  4.419E-14
1712.800  4.419E-14
1713.000  4.419E-14
1713.200  4.416E-14
1713.400  4.411E-14
1713.600  4.404E-14
1713.800  4.397E-14
1714.000  4.390E-14
1714.200  4.383E-14
1714.400  4.374E-14
1714.600  4.366E-14
1714.800  4.358E-14
1715.000  4.350E-14
1715.200  4.344E-14
1715.400  4.336E-14
1715.600  4.329E-14
1715.800  4.323E-14
1716.000  4.316E-14
1716.200  4.311E-14
1716.400  4.304E-14
1716.600  4.299E-14
1716.800  4.294E-14
1717.000  4.289E-14
1717.200  4.284E-14
1717.400  4.280E-14
1717.600  4.277E-14
1717.800  4.273E-14
1718.000  4.270E-14
1718.200  4.268E-14
1718.400  4.265E-14
1718.600  4.262E-14
1718.800  4.260E-14
1719.000  4.258E-14
1719.200  4.255E-14
1719.400  4.253E-14
1719.600  4.251E-14
1719.800  4.248E-14
1720.000  4.245E-14
1720.200  4.242E-14
1720.400  4.238E-14
1720.600  4.234E-14
1720.800  4.230E-14
1721.000  4.225E-14
1721.200  4.220E-14
1721.400  4.214E-14
1721.600  4.209E-14
1721.800  4.202E-14
1722.000  4.196E-14
1722.200  4.190E-14
1722.400  4.182E-14
1722.600  4.174E-14
1722.800  4.166E-14
1723.000  4.158E-14
1723.200  4.149E-14
1723.400  4.139E-14
1723.600  4.130E-14
1723.800  4.119E-14
1724.000  4.109E-14
1724.200  4.099E-14
1724.400  4.087E-14
1724.600  4.076E-14
1724.800  4.064E-14
1725.000  4.051E-14
1725.200  4.039E-14
1725.400  4.025E-14
1725.600  4.011E-14
1725.800  3.997E-14
1726.000  3.983E-14
1726.200  3.968E-14
1726.400  3.953E-14
1726.600  3.939E-14
1726.800  3.925E-14
1727.000  3.910E-14
1727.200  3.898E-14
1727.400  3.884E-14
1727.600  3.870E-14
1727.800  3.858E-14
1728.000  3.846E-14
1728.200  3.834E-14
1728.400  3.822E-14
1728.600  3.811E-14
1728.800  3.801E-14
1729.000  3.790E-14
1729.200  3.781E-14
1729.400  3.770E-14
1729.600  3.761E-14
1729.800  3.753E-14
1730.000  3.745E-14
1730.200  3.737E-14
1730.400  3.729E-14
1730.600  3.722E-14
1730.800  3.715E-14
1731.000  3.709E-14
1731.200  3.702E-14
1731.400  3.696E-14
1731.600  3.691E-14
1731.800  3.686E-14
1732.000  3.682E-14
1732.200  3.678E-14
1732.400  3.674E-14
1732.600  3.671E-14
1732.800  3.668E-14
1733.000  3.665E-14
1733.200  3.662E-14
1733.400  3.659E-14
1733.600  3.657E-14
1733.800  3.654E-14
1734.000  3.652E-14
1734.200  3.649E-14
1734.400  3.647E-14
1734.600  3.644E-14
1734.800  3.641E-14
1735.000  3.638E-14
1735.200  3.634E-14
1735.400  3.630E-14
1735.600  3.626E-14
1735.800  3.622E-14
1736.000  3.617E-14
1736.200  3.612E-14
1736.400  3.606E-14
1736.600  3.601E-14
1736.800  3.595E-14
1737.000  3.589E-14
1737.200  3.582E-14
1737.400  3.575E-14
1737.600  3.568E-14
1737.800  3.561E-14
1738.000  3.553E-14
1738.200  3.545E-14
1738.400  3.536E-14
1738.600  3.527E-14
1738.800  3.519E-14
1739.000  3.509E-14
1739.200  3.500E-14
1739.400  3.489E-14
1739.600  3.479E-14
1739.800  3.469E-14
1740.000  3.458E-14
1740.200  3.446E-14
1740.400  3.434E-14
1740.600  3.422E-14
1740.800  3.410E-14
1741.000  3.399E-14
1741.200  3.387E-14
1741.400  3.375E-14
1741.600  3.364E-14
1741.800  3.354E-14
1742.000  3.343E-14
1742.200  3.333E-14
1742.400  3.324E-14
1742.600  3.313E-14
1742.800  3.304E-14
1743.000  3.295E-14
1743.200  3.287E-14
1743.400  3.279E-14
1743.600  3.270E-14
1743.800  3.263E-14
1744.000  3.255E-14
1744.200  3.248E-14
1744.400  3.241E-14
1744.600  3.234E-14
1744.800  3.228E-14
1745.000  3.222E-14
1745.200  3.217E-14
1745.400  3.212E-14
1745.600  3.207E-14
1745.800  3.202E-14
1746.000  3.198E-14
1746.200  3.194E-14
1746.400  3.190E-14
1746.600  3.186E-14
1746.800  3.183E-14
1747.000  3.181E-14
1747.200  3.178E-14
1747.400  3.176E-14
1747.600  3.175E-14
1747.800  3.173E-14
1748.000  3.172E-14
1748.200  3.172E-14
1748.400  3.171E-14
1748.600  3.170E-14
1748.800  3.170E-14
1749.000  3.169E-14
1749.200  3.168E-14
1749.400  3.168E-14
1749.600  3.167E-14
1749.800  3.165E-14
1750.000  3.164E-14
1750.200  3.163E-14
1750.400  3.161E-14
1750.600  3.159E-14
1750.800  3.157E-14
1751.000  3.155E-14
1751.200  3.152E-14
1751.400  3.150E-14
1751.600  3.147E-14
1751.800  3.144E-14
1752.000  1.237E-13
1752.200  3.138E-14
1752.400  3.134E-14
1752.600  3.131E-14
1752.800  3.127E-14
1753.000  3.123E-14
1753.200  3.119E-14
1753.400  3.114E-14
1753.600  3.110E-14
1753.800  3.105E-14
1754.000  3.100E-14
1754.200  3.095E-14
1754.400  3.090E-14
1754.600  3.084E-14
1754.800  3.078E-14
1755.000  3.072E-14
1755.200  3.066E-14
1755.400  3.059E-14
1755.600  3.052E-14
1755.800  3.045E-14
1756.000  3.038E-14
1756.200  3.031E-14
1756.400  3.023E-14
1756.600  3.016E-14
1756.800  3.010E-14
1757.000  3.003E-14
1757.200  2.996E-14
1757.400  2.989E-14
1757.600  2.983E-14
1757.800  2.977E-14
1758.000  2.971E-14
1758.200  2.966E-14
1758.400  2.960E-14
1758.600  2.954E-14
1758.800  2.949E-14
1759.000  2.944E-14
1759.200  2.939E-14
1759.400  2.934E-14
1759.600  2.930E-14
1759.800  2.926E-14
1760.000  2.922E-14
1760.200  2.918E-14
1760.400  2.914E-14
1760.600  2.910E-14
1760.800  2.907E-14
1761.000  2.904E-14
1761.200  2.901E-14
1761.400  2.898E-14
1761.600  2.895E-14
1761.800  2.893E-14
1762.000  2.891E-14
1762.200  2.889E-14
1762.400  2.887E-14
1762.600  2.886E-14
1762.800  2.885E-14
1763.000  2.884E-14
1763.200  2.883E-14
1763.400  2.882E-14
1763.600  2.881E-14
1763.800  2.881E-14
1764.000  2.880E-14
1764.200  2.879E-14
1764.400  2.878E-14
1764.600  2.876E-14
1764.800  2.875E-14
1765.000  2.873E-14
1765.200  2.871E-14
1765.400  2.869E-14
1765.600  2.867E-14
1765.800  2.864E-14
1766.000  2.861E-14
1766.200  2.859E-14
1766.400  2.855E-14
1766.600  2.852E-14
1766.800  2.848E-14
1767.000  2.844E-14
1767.200  2.840E-14
1767.400  2.836E-14
1767.600  2.831E-14
1767.800  2.826E-14
1768.000  2.821E-14
1768.200  2.816E-14
1768.400  2.810E-14
1768.600  2.805E-14
1768.800  2.799E-14
1769.000  2.793E-14
1769.200  2.786E-14
1769.400  2.780E-14
1769.600  2.773E-14
1769.800  2.765E-14
1770.000  2.757E-14
1770.200  2.749E-14
1770.400  2.741E-14
1770.600  2.732E-14
1770.800  2.723E-14
1771.000  2.714E-14
1771.200  2.705E-14
1771.400  2.695E-14
1771.600  2.686E-14
1771.800  2.677E-14
1772.000  2.668E-14
1772.200  2.660E-14
1772.400  2.651E-14
1772.600  2.643E-14
1772.800  2.635E-14
1773.000  2.627E-14
1773.200  2.620E-14
1773.400  2.613E-14
1773.600  2.606E-14
1773.800  2.599E-14
1774.000  2.593E-14
1774.200  2.586E-14
1774.400  2.580E-14
1774.600  2.574E-14
1774.800  2.568E-14
1775.000  2.563E-14
1775.200  2.558E-14
1775.400  2.553E-14
1775.600  2.548E-14
1775.800  2.544E-14
1776.000  2.539E-14
1776.200  2.535E-14
1776.400  2.531E-14
1776.600  2.528E-14
1776.800  2.525E-14
1777.000  2.522E-14
1777.200  2.519E-14
1777.400  2.516E-14
1777.600  2.514E-14
1777.800  2.513E-14
1778.000  2.511E-14
1778.200  2.510E-14
1778.400  2.509E-14
1778.600  2.509E-14
1778.800  2.508E-14
1779.000  2.507E-14
1779.200  2.507E-14
1779.400  2.507E-14
1779.600  2.506E-14
1779.800  2.505E-14
1780.000  2.505E-14
1780.200  2.504E-14
1780.400  2.503E-14
1780.600  2.501E-14
1780.800  2.500E-14
1781.000  2.498E-14
1781.200  2.497E-14
1781.400  2.495E-14
1781.600  2.493E-14
1781.800  2.491E-14
1782.000  2.488E-14
1782.200  2.486E-14
1782.400  2.483E-14
1782.600  2.480E-14
1782.800  2.477E-14
1783.000  2.474E-14
1783.200  2.471E-14
1783.400  2.467E-14
1783.600  2.463E-14
1783.800  2.459E-14
1784.000  2.455E-14
1784.200  2.451E-14
1784.400  2.447E-14
1784.600  2.442E-14
1784.800  2.437E-14
1785.000  2.432E-14
1785.200  2.427E-14
1785.400  2.421E-14
1785.600  2.415E-14
1785.800  2.408E-14
1786.000  2.401E-14
1786.200  2.395E-14
1786.400  2.387E-14
1786.600  2.381E-14
1786.800  2.374E-14
1787.000  2.367E-14
1787.200  2.360E-14
1787.400  2.353E-14
1787.600  2.346E-14
1787.800  2.340E-14
1788.000  2.333E-14
1788.200  2.328E-14
1788.400  2.321E-14
1788.600  2.315E-14
1788.800  2.309E-14
1789.000  2.304E-14
1789.200  2.299E-14
1789.400  2.293E-14
1789.600  2.288E-14
1789.800  2.283E-14
1790.000  2.279E-14
1790.200  2.275E-14
1790.400  2.270E-14
1790.600  2.266E-14
1790.800  2.262E-14
1791.000  2.258E-14
1791.200  2.255E-14
1791.400  2.251E-14
1791.600  2.248E-14
1791.800  2.245E-14
1792.000  2.242E-14
1792.200  2.239E-14
1792.400  2.236E-14
1792.600  2.234E-14
1792.800  2.232E-14
1793.000  2.231E-14
1793.200  2.229E-14
1793.400  2.228E-14
1793.600  2.228E-14
1793.800  2.227E-14
1794.000  2.228E-14
1794.200  2.228E-14
1794.400  2.229E-14
1794.600  2.229E-14
1794.800  2.230E-14
1795.000  2.231E-14
1795.200  2.232E-14
1795.400  2.232E-14
1795.600  2.233E-14
1795.800  2.234E-14
1796.000  2.234E-14
1796.200  2.235E-14
1796.400  2.235E-14
1796.600  2.236E-14
1796.800  2.236E-14
1797.000  2.236E-14
1797.200  2.237E-14
1797.400  2.237E-14
1797.600  2.237E-14
1797.800  2.237E-14
1798.000  2.237E-14
1798.200  2.237E-14
1798.400  2.237E-14
1798.600  2.237E-14
1798.800  2.237E-14
1799.000  2.237E-14
1799.200  2.236E-14
1799.400  2.236E-14
1799.600  2.236E-14
1799.800  2.235E-14
1800.000  2.235E-14
1800.200  2.234E-14
1800.400  2.233E-14
1800.600  2.232E-14
1800.800  2.231E-14
1801.000  2.230E-14
1801.200  2.228E-14
1801.400  2.226E-14
1801.600  2.224E-14
1801.800  2.222E-14
1802.000  2.219E-14
1802.200  2.216E-14
1802.400  2.213E-14
1802.600  2.210E-14
1802.800  2.207E-14
1803.000  2.204E-14
1803.200  2.201E-14
1803.400  2.197E-14
1803.600  2.194E-14
1803.800  2.191E-14
1804.000  2.188E-14
1804.200  2.186E-14
1804.400  2.182E-14
1804.600  2.180E-14
1804.800  2.177E-14
1805.000  2.174E-14
1805.200  2.172E-14
1805.400  2.169E-14
1805.600  2.166E-14
1805.800  2.164E-14
1806.000  2.161E-14
1806.200  2.159E-14
1806.400  2.157E-14
1806.600  2.155E-14
1806.800  2.152E-14
1807.000  2.150E-14
1807.200  6.199E-14
1807.400  2.065E-13
1807.600  1.388E-13
1807.800  1.019E-13
1808.000  3.119E-12
1808.200  3.736E-12
1808.400  2.090E-13
1808.600  2.136E-14
1808.800  2.135E-14
1809.000  2.134E-14
1809.200  2.133E-14
1809.400  2.132E-14
1809.600  2.132E-14
1809.800  2.132E-14
1810.000  2.132E-14
1810.200  2.132E-14
1810.400  2.132E-14
1810.600  2.132E-14
1810.800  2.132E-14
1811.000  2.132E-14
1811.200  2.132E-14
1811.400  2.131E-14
1811.600  2.131E-14
1811.800  2.130E-14
1812.000  2.130E-14
1812.200  2.129E-14
1812.400  2.128E-14
1812.600  2.127E-14
1812.800  2.125E-14
1813.000  2.124E-14
1813.200  2.123E-14
1813.400  2.121E-14
1813.600  2.119E-14
1813.800  2.117E-14
1814.000  2.115E-14
1814.200  2.113E-14
1814.400  2.110E-14
1814.600  2.107E-14
1814.800  2.105E-14
1815.000  2.102E-14
1815.200  2.099E-14
1815.400  2.095E-14
1815.600  2.092E-14
1815.800  2.089E-14
1816.000  2.085E-14
1816.200  2.082E-14
1816.400  2.077E-14
1816.600  2.073E-14
1816.800  5.593E-13
1817.000  5.888E-12
1817.200  4.417E-12
1817.400  9.427E-13
1817.600  2.124E-12
1817.800  1.649E-13
1818.000  2.034E-14
1818.200  2.028E-14
1818.400  2.021E-14
1818.600  2.015E-14
1818.800  2.008E-14
1819.000  2.002E-14
1819.200  1.996E-14
1819.400  1.989E-14
1819.600  1.983E-14
1819.800  1.977E-14
1820.000  1.971E-14
1820.200  1.966E-14
1820.400  1.960E-14
1820.600  1.955E-14
1820.800  1.950E-14
1821.000  1.945E-14
1821.200  1.940E-14
1821.400  1.935E-14
1821.600  1.930E-14
1821.800  1.926E-14
1822.000  1.921E-14
1822.200  9.300E-14
1822.400  6.411E-14
1822.600  1.910E-14
1822.800  1.906E-14
1823.000  1.903E-14
1823.200  1.899E-14
1823.400  1.896E-14
1823.600  1.893E-14
1823.800  1.890E-14
1824.000  6.154E-14
1824.200  1.885E-14
1824.400  1.882E-14
1824.600  1.880E-14
1824.800  1.879E-14
1825.000  1.877E-14
1825.200  1.876E-14
1825.400  1.875E-14
1825.600  1.874E-14
1825.800  1.874E-14
1826.000  1.874E-14
1826.200  1.642E-13
1826.400  2.191E-13
1826.600  1.874E-14
1826.800  1.874E-14
1827.000  1.875E-14
1827.200  1.875E-14
1827.400  1.875E-14
1827.600  1.875E-14
1827.800  1.875E-14
1828.000  1.875E-14
1828.200  1.875E-14
1828.400  1.875E-14
1828.600  1.875E-14
1828.800  1.874E-14
1829.000  1.874E-14
1829.200  1.874E-14
1829.400  1.873E-14
1829.600  1.873E-14
1829.800  1.872E-14
1830.000  1.871E-14
1830.200  1.870E-14
1830.400  1.869E-14
1830.600  1.869E-14
1830.800  1.867E-14
1831.000  1.866E-14
1831.200  1.865E-14
1831.400  1.864E-14
1831.600  1.862E-14
1831.800  1.197E-13
1832.000  1.859E-14
1832.200  1.858E-14
1832.400  1.856E-14
1832.600  1.854E-14
1832.800  1.852E-14
1833.000  1.849E-14
1833.200  1.847E-14
1833.400  1.844E-14
1833.600  1.841E-14
1833.800  1.837E-14
1834.000  1.834E-14
1834.200  1.831E-14
1834.400  1.827E-14
1834.600  1.823E-14
1834.800  1.819E-14
1835.000  1.815E-14
1835.200  1.812E-14
1835.400  1.808E-14
1835.600  1.805E-14
1835.800  1.801E-14
1836.000  1.797E-14
1836.200  1.794E-14
1836.400  1.791E-14
1836.600  1.788E-14
1836.800  1.784E-14
1837.000  1.781E-14
1837.200  1.778E-14
1837.400  1.775E-14
1837.600  1.772E-14
1837.800  1.770E-14
1838.000  1.767E-14
1838.200  1.764E-14
1838.400  1.762E-14
1838.600  1.759E-14
1838.800  1.757E-14
1839.000  1.755E-14
1839.200  1.752E-14
1839.400  1.750E-14
1839.600  1.748E-14
1839.800  1.746E-14
1840.000  1.744E-14
1840.200  1.743E-14
1840.400  1.741E-14
1840.600  1.739E-14
1840.800  1.738E-14
1841.000  1.737E-14
1841.200  1.736E-14
1841.400  1.735E-14
1841.600  1.734E-14
1841.800  9.493E-14
1842.000  1.734E-14
1842.200  1.734E-14
1842.400  1.735E-14
1842.600  1.735E-14
1842.800  1.735E-14
1843.000  1.736E-14
1843.200  1.736E-14
1843.400  1.737E-14
1843.600  1.738E-14
1843.800  1.738E-14
1844.000  1.738E-14
1844.200  1.739E-14
1844.400  1.739E-14
1844.600  1.739E-14
1844.800  1.740E-14
1845.000  6.869E-14
1845.200  1.740E-14
1845.400  1.740E-14
1845.600  1.740E-14
1845.800  1.740E-14
1846.000  1.740E-14
1846.200  1.740E-14
1846.400  1.740E-14
1846.600  1.740E-14
1846.800  1.740E-14
1847.000  6.716E-14
1847.200  1.740E-14
1847.400  1.740E-14
1847.600  1.739E-14
1847.800  1.739E-14
1848.000  8.595E-14
1848.200  1.738E-14
1848.400  7.280E-14
1848.600  1.737E-14
1848.800  1.736E-14
1849.000  1.736E-14
1849.200  1.735E-14
1849.400  1.734E-14
1849.600  1.732E-14
1849.800  1.731E-14
1850.000  1.730E-14
1850.200  1.728E-14
1850.400  1.726E-14
1850.600  1.724E-14
1850.800  1.722E-14
1851.000  1.719E-14
1851.200  1.717E-14
1851.400  1.714E-14
1851.600  1.712E-14
1851.800  1.710E-14
1852.000  1.707E-14
1852.200  1.705E-14
1852.400  1.703E-14
1852.600  1.700E-14
1852.800  1.698E-14
1853.000  1.696E-14
1853.200  1.694E-14
1853.400  1.692E-14
1853.600  1.690E-14
1853.800  1.688E-14
1854.000  1.686E-14
1854.200  1.684E-14
1854.400  1.682E-14
1854.600  8.812E-14
1854.800  1.981E-13
1855.000  1.782E-13
1855.200  6.184E-14
1855.400  1.673E-14
1855.600  4.648E-14
1855.800  1.670E-14
1856.000  4.813E-14
1856.200  1.667E-14
1856.400  1.665E-14
1856.600  1.664E-14
1856.800  1.663E-14
1857.000  1.661E-14
1857.200  4.772E-14
1857.400  1.659E-14
1857.600  1.658E-14
1857.800  1.657E-14
1858.000  1.657E-14
1858.200  1.656E-14
1858.400  1.655E-14
1858.600  1.655E-14
1858.800  1.655E-14
1859.000  1.655E-14
1859.200  1.655E-14
1859.400  1.655E-14
1859.600  1.655E-14
1859.800  1.453E-13
1860.000  1.319E-13
1860.200  1.077E-13
1860.400  1.654E-14
1860.600  1.654E-14
1860.800  1.654E-14
1861.000  1.654E-14
1861.200  1.653E-14
1861.400  1.653E-14
1861.600  1.652E-14
1861.800  1.652E-14
1862.000  1.651E-14
1862.200  1.650E-14
1862.400  1.649E-14
1862.600  5.625E-14
1862.800  1.079E-13
1863.000  1.105E-13
1863.200  5.618E-14
1863.400  1.644E-14
1863.600  1.643E-14
1863.800  1.641E-14
1864.000  1.640E-14
1864.200  1.638E-14
1864.400  1.637E-14
1864.600  1.635E-14
1864.800  1.633E-14
1865.000  1.631E-14
1865.200  1.629E-14
1865.400  1.627E-14
1865.600  1.625E-14
1865.800  1.623E-14
1866.000  1.620E-14
1866.200  1.618E-14
1866.400  1.615E-14
1866.600  1.613E-14
1866.800  1.610E-14
1867.000  1.607E-14
1867.200  1.604E-14
1867.400  1.600E-14
1867.600  1.597E-14
1867.800  1.594E-14
1868.000  1.590E-14
1868.200  1.587E-14
1868.400  1.584E-14
1868.600  1.581E-14
1868.800  1.577E-14
1869.000  1.574E-14
1869.200  1.571E-14
1869.400  1.568E-14
1869.600  1.565E-14
1869.800  1.562E-14
1870.000  1.559E-14
1870.200  1.556E-14
1870.400  1.553E-14
1870.600  1.551E-14
1870.800  1.548E-14
1871.000  1.546E-14
1871.200  4.053E-14
1871.400  4.324E-14
1871.600  1.539E-14
1871.800  3.910E-14
1872.000  1.535E-14
1872.200  1.533E-14
1872.400  1.531E-14
1872.600  4.508E-14
1872.800  4.916E-14
1873.000  5.260E-14
1873.200  1.491E-13
1873.400  7.435E-14
1873.600  4.689E-14
1873.800  4.457E-14
1874.000  1.519E-14
1874.200  1.518E-14
1874.400  4.488E-14
1874.600  4.322E-14
1874.800  5.962E-14
1875.000  7.587E-14
1875.200  7.517E-14
1875.400  1.514E-14
1875.600  1.514E-14
1875.800  2.050E-13
1876.000  2.152E-13
1876.200  1.515E-14
1876.400  1.516E-14
1876.600  1.516E-14
1876.800  1.517E-14
1877.000  7.987E-14
1877.200  1.518E-14
1877.400  1.518E-14
1877.600  1.519E-14
1877.800  1.520E-14
1878.000  1.520E-14
1878.200  1.521E-14
1878.400  1.521E-14
1878.600  1.522E-14
1878.800  1.522E-14
1879.000  1.523E-14
1879.200  1.523E-14
1879.400  1.524E-14
1879.600  1.524E-14
1879.800  1.525E-14
1880.000  1.525E-14
1880.200  5.328E-14
1880.400  1.526E-14
1880.600  1.526E-14
1880.800  1.527E-14
1881.000  6.996E-14
1881.200  6.596E-14
1881.400  1.528E-14
1881.600  5.479E-14
1881.800  5.243E-14
1882.000  1.529E-14
1882.200  1.529E-14
1882.400  1.529E-14
1882.600  1.529E-14
1882.800  1.529E-14
1883.000  1.529E-14
1883.200  1.529E-14
1883.400  1.529E-14
1883.600  1.529E-14
1883.800  1.528E-14
1884.000  1.528E-14
1884.200  1.527E-14
1884.400  1.527E-14
1884.600  1.526E-14
1884.800  1.525E-14
1885.000  1.524E-14
1885.200  1.523E-14
1885.400  1.522E-14
1885.600  1.521E-14
1885.800  1.520E-14
1886.000  1.519E-14
1886.200  1.518E-14
1886.400  1.517E-14
1886.600  1.516E-14
1886.800  1.515E-14
1887.000  1.514E-14
1887.200  1.513E-14
1887.400  1.512E-14
1887.600  1.511E-14
1887.800  1.510E-14
1888.000  9.713E-14
1888.200  1.057E-13
1888.400  3.876E-14
1888.600  1.507E-14
1888.800  5.838E-14
1889.000  5.448E-14
1889.200  4.781E-14
1889.400  1.503E-14
1889.600  3.969E-14
1889.800  4.236E-14
1890.000  4.224E-14
1890.200  4.304E-14
1890.400  5.036E-14
1890.600  5.169E-14
1890.800  4.002E-14
1891.000  4.041E-14
1891.200  4.063E-14
1891.400  4.502E-14
1891.600  4.954E-14
1891.800  4.971E-14
1892.000  3.133E-13
1892.200  5.292E-13
1892.400  2.097E-13
1892.600  5.451E-14
1892.800  5.427E-14
1893.000  1.490E-14
1893.200  1.489E-14
1893.400  8.182E-14
1893.600  6.392E-14
1893.800  1.487E-14
1894.000  1.486E-14
1894.200  5.883E-14
1894.400  1.484E-14
1894.600  1.483E-14
1894.800  5.185E-14
1895.000  1.481E-14
1895.200  1.480E-14
1895.400  1.479E-14
1895.600  7.522E-14
1895.800  7.013E-14
1896.000  1.474E-14
1896.200  1.473E-14
1896.400  5.450E-14
1896.600  5.540E-14
1896.800  5.352E-14
1897.000  1.466E-14
1897.200  5.097E-14
1897.400  5.695E-14
1897.600  1.461E-14
1897.800  1.459E-14
1898.000  1.457E-14
1898.200  5.107E-14
1898.400  1.452E-14
1898.600  5.646E-14
1898.800  1.448E-14
1899.000  1.446E-14
1899.200  1.443E-14
1899.400  1.441E-14
1899.600  1.438E-14
1899.800  1.435E-14
1900.000  1.433E-14
1900.200  1.430E-14
1900.400  4.079E-13
1900.600  1.313E-13
1900.800  1.423E-14
1901.000  1.420E-14
1901.200  1.418E-14
1901.400  8.997E-14
1901.600  1.414E-14
1901.800  3.394E-13
1902.000  3.383E-13
1902.200  1.407E-14
1902.400  1.405E-14
1902.600  9.456E-14
1902.800  1.402E-14
1903.000  1.400E-14
1903.200  1.398E-14
1903.400  1.396E-14
1903.600  1.395E-14
1903.800  1.205E-13
1904.000  1.392E-14
1904.200  1.390E-14
1904.400  1.389E-14
1904.600  1.379E-13
1904.800  1.386E-14
1905.000  1.385E-14
1905.200  1.384E-14
1905.400  1.383E-14
1905.600  5.334E-14
1905.800  4.716E-14
1906.000  5.517E-14
1906.200  4.416E-14
1906.400  4.311E-14
1906.600  4.762E-14
1906.800  5.291E-14
1907.000  4.428E-14
1907.200  4.856E-14
1907.400  5.673E-14
1907.600  3.773E-14
1907.800  4.367E-14
1908.000  4.229E-14
1908.200  3.620E-14
1908.400  4.226E-14
1908.600  5.843E-14
1908.800  6.790E-14
1909.000  6.486E-14
1909.200  5.373E-14
1909.400  6.249E-14
1909.600  5.925E-14
1909.800  5.333E-14
1910.000  5.712E-14
1910.200  4.294E-14
1910.400  4.426E-14
1910.600  4.929E-14
1910.800  1.373E-14
1911.000  6.874E-14
1911.200  6.874E-14
1911.400  1.371E-14
1911.600  1.371E-14
1911.800  1.370E-14
1912.000  1.370E-14
1912.200  1.369E-14
1912.400  1.368E-14
1912.600  1.367E-14
1912.800  1.367E-14
1913.000  1.366E-14
1913.200  1.365E-14
1913.400  1.364E-14
1913.600  5.497E-14
1913.800  1.362E-14
1914.000  5.871E-14
1914.200  8.128E-14
1914.400  5.557E-14
1914.600  4.909E-14
1914.800  1.752E-13
1915.000  7.700E-14
1915.200  6.900E-14
1915.400  6.546E-14
1915.600  5.101E-14
1915.800  1.468E-13
1916.000  1.425E-13
1916.200  4.373E-14
1916.400  5.265E-14
1916.600  1.343E-14
1916.800  1.341E-14
1917.000  5.236E-14
1917.200  4.995E-14
1917.400  5.875E-14
1917.600  1.333E-14
1917.800  1.331E-14
1918.000  1.329E-14
1918.200  1.328E-14
1918.400  1.326E-14
1918.600  1.324E-14
1918.800  1.322E-14
1919.000  1.320E-14
1919.200  6.628E-14
1919.400  1.316E-14
1919.600  1.315E-14
1919.800  7.683E-14
1920.000  1.312E-14
1920.200  1.310E-14
1920.400  1.308E-14
1920.600  1.307E-14
1920.800  1.305E-14
1921.000  1.304E-14
1921.200  1.303E-14
1921.400  1.301E-14
1921.600  1.300E-14
1921.800  1.299E-14
1922.000  1.298E-14
1922.200  1.297E-14
1922.400  1.114E-13
1922.600  1.295E-14
1922.800  1.294E-14
1923.000  1.293E-14
1923.200  1.292E-14
1923.400  4.457E-14
1923.600  3.967E-14
1923.800  5.349E-14
1924.000  5.565E-14
1924.200  4.987E-14
1924.400  3.419E-14
1924.600  4.058E-14
1924.800  5.565E-14
1925.000  4.859E-14
1925.200  4.106E-14
1925.400  4.141E-14
1925.600  6.811E-14
1925.800  5.298E-14
1926.000  8.164E-14
1926.200  1.497E-13
1926.400  2.528E-13
1926.600  7.675E-14
1926.800  4.936E-14
1927.000  5.370E-14
1927.200  4.987E-14
1927.400  4.639E-14
1927.600  4.859E-14
1927.800  5.824E-14
1928.000  5.811E-14
1928.200  4.263E-14
1928.400  4.468E-14
1928.600  4.581E-14
1928.800  3.868E-14
1929.000  6.677E-14
1929.200  1.282E-14
1929.400  1.281E-14
1929.600  1.281E-14
1929.800  1.280E-14
1930.000  1.280E-14
1930.200  1.279E-14
1930.400  5.186E-14
1930.600  1.278E-14
1930.800  1.516E-13
1931.000  3.051E-13
1931.200  2.353E-13
1931.400  5.068E-14
1931.600  4.487E-14
1931.800  4.603E-14
1932.000  1.272E-14
1932.200  4.068E-14
1932.400  1.270E-14
1932.600  5.462E-14
1932.800  4.411E-14
1933.000  4.965E-14
1933.200  1.266E-14
1933.400  4.379E-14
1933.600  4.649E-14
1933.800  1.262E-14
1934.000  5.248E-14
1934.200  4.741E-14
1934.400  5.407E-14
1934.600  1.257E-14
1934.800  4.692E-14
1935.000  1.254E-14
1935.200  4.608E-14
1935.400  5.113E-14
1935.600  1.249E-14
1935.800  1.248E-14
1936.000  1.246E-14
1936.200  1.244E-14
1936.400  1.243E-14
1936.600  1.241E-14
1936.800  1.888E-13
1937.000  1.953E-13
1937.200  1.237E-14
1937.400  1.235E-14
1937.600  1.234E-14
1937.800  1.233E-14
1938.000  4.424E-14
1938.200  1.230E-14
1938.400  1.229E-14
1938.600  1.228E-14
1938.800  1.227E-14
1939.000  1.225E-14
1939.200  1.224E-14
1939.400  1.223E-14
1939.600  1.222E-14
1939.800  1.221E-14
1940.000  1.221E-14
1940.200  1.220E-14
1940.400  1.219E-14
1940.600  1.218E-14
1940.800  1.217E-14
1941.000  1.217E-14
1941.200  1.216E-14
1941.400  3.730E-14
1941.600  5.240E-14
1941.800  6.931E-14
1942.000  6.894E-14
1942.200  7.750E-14
1942.400  6.605E-14
1942.600  7.001E-14
1942.800  6.143E-14
1943.000  5.727E-14
1943.200  6.330E-14
1943.400  6.481E-14
1943.600  5.496E-14
1943.800  6.591E-14
1944.000  5.781E-14
1944.200  1.158E-13
1944.400  7.876E-14
1944.600  4.809E-14
1944.800  5.464E-14
1945.000  4.639E-14
1945.200  5.130E-14
1945.400  5.148E-14
1945.600  5.721E-14
1945.800  5.679E-14
1946.000  5.653E-14
1946.200  5.300E-14
1946.400  5.684E-14
1946.600  6.035E-14
1946.800  5.998E-14
1947.000  3.816E-14
1947.200  6.234E-14
1947.400  6.510E-14
1947.600  6.029E-14
1947.800  6.842E-14
1948.000  6.767E-14
1948.200  7.621E-14
1948.400  6.059E-14
1948.600  5.856E-14
1948.800  6.896E-14
1949.000  1.205E-14
1949.200  4.956E-14
1949.400  7.368E-14
1949.600  5.972E-14
1949.800  6.410E-14
1950.000  6.183E-14
1950.200  6.479E-14
1950.400  5.265E-14
1950.600  6.472E-14
1950.800  5.297E-14
1951.000  4.209E-14
1951.200  5.173E-14
1951.400  5.525E-14
1951.600  5.178E-14
1951.800  5.421E-14
1952.000  5.923E-14
1952.200  5.734E-14
1952.400  5.352E-14
1952.600  1.188E-14
1952.800  4.068E-14
1953.000  3.891E-14
1953.200  1.183E-14
1953.400  6.526E-14
1953.600  5.965E-14
1953.800  8.029E-14
1954.000  8.097E-14
1954.200  5.171E-14
1954.400  6.960E-14
1954.600  6.693E-14
1954.800  8.218E-14
1955.000  5.793E-14
1955.200  8.707E-14
1955.400  7.039E-14
1955.600  7.750E-14
1955.800  1.162E-14
1956.000  1.161E-14
1956.200  1.159E-14
1956.400  7.863E-14
1956.600  6.751E-14
1956.800  7.646E-14
1957.000  6.484E-14
1957.200  6.297E-14
1957.400  9.682E-14
1957.600  1.150E-14
1957.800  1.149E-14
1958.000  1.148E-14
1958.200  1.147E-14
1958.400  1.146E-14
1958.600  1.145E-14
1958.800  1.144E-14
1959.000  1.143E-14
1959.200  1.142E-14
1959.400  1.141E-14
1959.600  1.141E-14
1959.800  1.279E-13
1960.000  1.225E-13
1960.200  5.101E-14
1960.400  6.042E-14
1960.600  6.123E-14
1960.800  6.594E-14
1961.000  4.765E-14
1961.200  4.840E-14
1961.400  5.727E-14
1961.600  6.198E-14
1961.800  5.932E-14
1962.000  5.570E-14
1962.200  5.038E-14
1962.400  7.591E-14
1962.600  7.290E-14
1962.800  5.707E-14
1963.000  6.217E-14
1963.200  6.348E-14
1963.400  6.190E-14
1963.600  5.405E-14
1963.800  6.365E-14
1964.000  5.375E-14
1964.200  4.727E-14
1964.400  6.456E-14
1964.600  6.251E-14
1964.800  5.226E-14
1965.000  7.173E-14
1965.200  6.993E-14
1965.400  6.715E-14
1965.600  6.018E-14
1965.800  6.400E-14
1966.000  6.626E-14
1966.200  6.691E-14
1966.400  6.564E-14
1966.600  6.558E-14
1966.800  8.262E-14
1967.000  7.030E-14
1967.200  6.229E-14
1967.400  6.618E-14
1967.600  6.104E-14
1967.800  7.088E-14
1968.000  8.167E-14
1968.200  9.045E-14
1968.400  8.468E-14
1968.600  7.188E-14
1968.800  6.644E-14
1969.000  7.343E-14
1969.200  7.441E-14
1969.400  6.947E-14
1969.600  7.493E-14
1969.800  7.901E-14
1970.000  6.500E-14
1970.200  6.736E-14
1970.400  6.675E-14
1970.600  6.436E-14
1970.800  7.298E-14
1971.000  6.537E-14
1971.200  6.560E-14
1971.400  8.278E-14
1971.600  7.058E-14
1971.800  6.819E-14
1972.000  5.898E-14
1972.200  5.898E-14
1972.400  7.256E-14
1972.600  7.421E-14
1972.800  6.360E-14
1973.000  5.569E-14
1973.200  6.191E-14
1973.400  7.507E-14
1973.600  7.815E-14
1973.800  7.555E-14
1974.000  5.320E-14
1974.200  5.702E-14
1974.400  7.071E-14
1974.600  7.529E-14
1974.800  6.298E-14
1975.000  6.241E-14
1975.200  1.155E-14
1975.400  7.535E-14
1975.600  8.589E-14
1975.800  9.165E-14
1976.000  8.256E-14
1976.200  7.717E-14
1976.400  1.154E-14
1976.600  1.154E-14
1976.800  1.154E-14
1977.000  1.154E-14
1977.200  1.154E-14
1977.400  1.079E-13
1977.600  9.891E-14
1977.800  9.950E-14
1978.000  1.153E-14
1978.200  1.153E-14
1978.400  1.153E-14
1978.600  1.153E-14
1978.800  1.169E-13
1979.000  6.859E-14
1979.200  8.924E-14
1979.400  9.843E-14
1979.600  6.951E-14
1979.800  7.374E-14
1980.000  7.407E-14
1980.200  7.515E-14
1980.400  7.819E-14
1980.600  1.008E-13
1980.800  1.081E-13
1981.000  5.972E-14
1981.200  7.533E-14
1981.400  7.132E-14
1981.600  5.579E-14
1981.800  6.206E-14
1982.000  6.963E-14
1982.200  6.757E-14
1982.400  6.411E-14
1982.600  6.641E-14
1982.800  7.486E-14
1983.000  6.979E-14
1983.200  9.733E-14
1983.400  1.274E-13
1983.600  7.451E-14
1983.800  6.648E-14
1984.000  6.580E-14
1984.200  7.628E-14
1984.400  7.316E-14
1984.600  6.425E-14
1984.800  6.530E-14
1985.000  7.708E-14
1985.200  7.022E-14
1985.400  7.330E-14
1985.600  8.041E-14
1985.800  8.033E-14
1986.000  7.725E-14
1986.200  7.405E-14
1986.400  1.002E-13
1986.600  1.022E-13
1986.800  7.254E-14
1987.000  7.435E-14
1987.200  6.326E-14
1987.400  7.209E-14
1987.600  7.330E-14
1987.800  8.289E-14
1988.000  6.733E-14
1988.200  6.971E-14
1988.400  7.831E-14
1988.600  7.416E-14
1988.800  6.580E-14
1989.000  1.299E-13
1989.200  1.360E-13
1989.400  6.250E-14
1989.600  8.401E-14
1989.800  8.501E-14
1990.000  7.583E-14
1990.200  7.454E-14
1990.400  5.736E-14
1990.600  8.245E-14
1990.800  7.135E-14
1991.000  6.759E-14
1991.200  6.396E-14
1991.400  6.150E-14
1991.600  6.933E-14
1991.800  7.431E-14
1992.000  9.179E-14
1992.200  9.815E-14
1992.400  6.957E-14
1992.600  6.408E-14
1992.800  6.642E-14
1993.000  7.487E-14
1993.200  7.490E-14
1993.400  6.901E-14
1993.600  5.249E-13
1993.800  9.039E-13
1994.000  7.443E-14
1994.200  7.416E-14
1994.400  6.195E-14
1994.600  7.631E-14
1994.800  6.990E-14
1995.000  6.976E-14
1995.200  8.035E-14
1995.400  6.588E-14
1995.600  8.014E-14
1995.800  6.753E-14
1996.000  7.989E-14
1996.200  8.419E-14
1996.400  7.556E-14
1996.600  9.843E-14
1996.800  7.909E-14
1997.000  1.083E-14
1997.200  1.082E-14
1997.400  1.081E-14
1997.600  8.574E-14
1997.800  1.080E-14
1998.000  1.126E-13
1998.200  7.105E-14
1998.400  8.151E-14
1998.600  8.184E-14
1998.800  7.157E-14
1999.000  7.342E-14
1999.200  7.342E-14
1999.400  7.758E-14
1999.600  7.175E-14
1999.800  8.865E-14
2000.000  7.997E-14
2000.200  7.313E-14
2000.400  9.408E-14
2000.600  8.539E-14
2000.800  6.783E-14
2001.000  1.033E-13
2001.200  1.044E-13
2001.400  5.760E-14
2001.600  7.901E-14
2001.800  8.315E-14
2002.000  7.630E-14
2002.200  8.458E-14
2002.400  8.225E-14
2002.600  7.889E-14
2002.800  7.713E-14
2003.000  8.301E-14
2003.200  8.166E-14
2003.400  7.518E-14
2003.600  7.936E-14
2003.800  8.848E-14
2004.000  7.116E-14
2004.200  7.323E-14
2004.400  8.473E-14
2004.600  8.328E-14
2004.800  8.293E-14
2005.000  8.569E-14
2005.200  9.201E-14
2005.400  8.643E-14
2005.600  7.881E-14
2005.800  9.808E-14
2006.000  9.096E-14
2006.200  8.749E-14
2006.400  6.942E-14
2006.600  6.980E-14
2006.800  6.878E-14
2007.000  6.984E-14
2007.200  5.890E-14
2007.400  8.754E-14
2007.600  8.227E-14
2007.800  7.782E-14
2008.000  9.140E-14
2008.200  2.202E-13
2008.400  1.294E-13
2008.600  1.281E-13
2008.800  7.440E-14
2009.000  7.143E-14
2009.200  7.616E-14
2009.400  7.135E-14
2009.600  6.983E-14
2009.800  6.870E-14
2010.000  8.188E-14
2010.200  7.197E-14
2010.400  9.447E-14
2010.600  8.763E-14
2010.800  8.722E-14
2011.000  8.130E-14
2011.200  8.298E-14
2011.400  1.408E-13
2011.600  1.269E-13
2011.800  1.534E-13
2012.000  1.303E-13
2012.200  9.543E-14
2012.400  8.968E-14
2012.600  7.206E-14
2012.800  7.388E-14
2013.000  8.641E-14
2013.200  8.523E-14
2013.400  7.863E-14
2013.600  9.121E-14
2013.800  8.909E-14
2014.000  1.031E-13
2014.200  8.755E-14
2014.400  1.054E-13
2014.600  9.053E-14
2014.800  8.643E-14
2015.000  7.718E-14
2015.200  9.117E-14
2015.400  7.743E-14
2015.600  8.075E-14
2015.800  6.952E-14
2016.000  6.757E-14
2016.200  2.524E-13
2016.400  1.972E-13
2016.600  8.848E-14
2016.800  8.871E-14
2017.000  1.041E-13
2017.200  1.053E-14
2017.400  8.879E-14
2017.600  9.232E-14
2017.800  1.061E-13
2018.000  9.120E-14
2018.200  9.151E-14
2018.400  9.704E-14
2018.600  9.133E-14
2018.800  8.225E-14
2019.000  7.771E-14
2019.200  7.398E-14
2019.400  1.348E-13
2019.600  1.613E-13
2019.800  7.850E-14
2020.000  8.818E-14
2020.200  9.442E-14
2020.400  8.384E-14
2020.600  8.097E-14
2020.800  9.410E-14
2021.000  8.160E-14
2021.200  7.303E-14
2021.400  1.419E-13
2021.600  1.596E-13
2021.800  8.594E-14
2022.000  7.577E-14
2022.200  8.440E-14
2022.400  8.363E-14
2022.600  7.215E-14
2022.800  8.287E-14
2023.000  8.725E-14
2023.200  8.663E-14
2023.400  8.101E-14
2023.600  7.781E-14
2023.800  9.638E-14
2024.000  9.549E-14
2024.200  8.868E-14
2024.400  9.103E-14
2024.600  9.784E-14
2024.800  7.755E-14
2025.000  7.637E-14
2025.200  7.256E-14
2025.400  6.339E-14
2025.600  8.188E-14
2025.800  1.036E-13
2026.000  1.018E-13
2026.200  7.448E-14
2026.400  1.405E-13
2026.600  1.070E-13
2026.800  8.432E-14
2027.000  6.295E-14
2027.200  8.044E-14
2027.400  8.314E-14
2027.600  9.768E-14
2027.800  9.971E-14
2028.000  1.023E-13
2028.200  9.237E-14
2028.400  9.189E-14
2028.600  8.864E-14
2028.800  9.205E-14
2029.000  9.392E-14
2029.200  7.798E-14
2029.400  8.604E-14
2029.600  8.432E-14
2029.800  1.044E-13
2030.000  1.051E-13
2030.200  7.963E-14
2030.400  9.224E-14
2030.600  9.052E-14
2030.800  9.621E-14
2031.000  8.516E-14
2031.200  9.385E-14
2031.400  9.338E-14
2031.600  1.092E-13
2031.800  1.060E-13
2032.000  8.723E-14
2032.200  9.216E-14
2032.400  8.618E-14
2032.600  8.312E-14
2032.800  1.006E-13
2033.000  1.039E-13
2033.200  1.502E-13
2033.400  8.988E-14
2033.600  8.116E-14
2033.800  9.213E-14
2034.000  8.405E-14
2034.200  7.300E-14
2034.400  7.934E-14
2034.600  8.177E-14
2034.800  8.259E-14
2035.000  8.389E-14
2035.200  7.254E-14
2035.400  1.046E-13
2035.600  1.057E-13
2035.800  7.359E-14
2036.000  1.149E-13
2036.200  1.058E-13
2036.400  9.987E-14
2036.600  1.152E-13
2036.800  1.192E-13
2037.000  9.442E-14
2037.200  1.234E-13
2037.400  7.299E-14
2037.600  1.045E-13
2037.800  9.395E-14
2038.000  9.886E-14
2038.200  9.762E-14
2038.400  9.702E-14
2038.600  1.121E-13
2038.800  8.348E-14
2039.000  8.150E-14
2039.200  8.190E-14
2039.400  7.722E-14
2039.600  9.192E-14
2039.800  8.607E-14
2040.000  9.035E-14
2040.200  1.424E-13
2040.400  1.049E-13
2040.600  1.496E-13
2040.800  1.498E-13
2041.000  8.796E-14
2041.200  9.449E-14
2041.400  2.311E-13
2041.600  2.187E-13
2041.800  8.595E-14
2042.000  8.943E-14
2042.200  9.478E-14
2042.400  8.730E-14
2042.600  9.474E-14
2042.800  1.146E-13
2043.000  1.148E-13
2043.200  9.161E-14
2043.400  9.717E-14
2043.600  9.984E-14
2043.800  9.808E-14
2044.000  1.044E-13
2044.200  1.107E-13
2044.400  9.646E-14
2044.600  1.025E-13
2044.800  1.026E-13
2045.000  9.948E-14
2045.200  9.442E-14
2045.400  9.522E-14
2045.600  9.540E-14
2045.800  9.601E-14
2046.000  1.127E-13
2046.200  1.115E-13
2046.400  1.034E-13
2046.600  9.325E-14
2046.800  1.010E-13
2047.000  9.706E-14
2047.200  9.517E-14
2047.400  1.011E-13
2047.600  9.783E-14
2047.800  9.234E-14
2048.000  8.378E-14
2048.200  8.820E-14
2048.400  9.429E-14
2048.600  1.112E-13
2048.800  8.907E-14
2049.000  9.097E-14
2049.200  1.286E-13
2049.400  1.286E-13
2049.600  1.003E-13
2049.800  9.713E-14
2050.000  1.045E-13
2050.200  1.066E-13
2050.400  9.332E-14
2050.600  9.012E-14
2050.800  9.038E-14
2051.000  9.229E-14
2051.200  9.549E-14
2051.400  1.020E-13
2051.600  1.061E-13
2051.800  1.522E-13
2052.000  1.247E-13
2052.200  1.016E-13
2052.400  9.877E-14
2052.600  9.060E-14
2052.800  8.685E-14
2053.000  1.008E-13
2053.200  9.885E-14
2053.400  1.007E-13
2053.600  1.117E-13
2053.800  1.060E-13
2054.000  1.255E-13
2054.200  1.236E-13
2054.400  1.030E-13
2054.600  1.084E-13
2054.800  1.029E-13
2055.000  9.585E-14
2055.200  1.003E-13
2055.400  1.055E-13
2055.600  1.248E-13
2055.800  1.267E-13
2056.000  1.369E-13
2056.200  1.393E-13
2056.400  2.228E-13
2056.600  1.336E-13
2056.800  1.082E-13
2057.000  1.224E-13
2057.200  1.130E-13
2057.400  1.073E-13
2057.600  1.089E-13
2057.800  1.043E-13
2058.000  1.310E-13
2058.200  1.436E-13
2058.400  9.770E-14
2058.600  1.057E-13
2058.800  1.051E-13
2059.000  1.030E-13
2059.200  1.041E-13
2059.400  1.042E-13
2059.600  1.005E-13
2059.800  1.003E-13
2060.000  1.044E-13
2060.200  1.041E-13
2060.400  9.381E-14
2060.600  9.283E-14
2060.800  9.357E-14
2061.000  8.750E-14
2061.200  9.079E-14
2061.400  9.835E-14
2061.600  9.802E-14
2061.800  9.487E-14
2062.000  1.061E-13
2062.200  1.406E-13
2062.400  1.982E-13
2062.600  1.112E-13
2062.800  1.034E-13
2063.000  1.084E-13
2063.200  9.251E-14
2063.400  1.010E-13
2063.600  1.045E-13
2063.800  1.046E-13
2064.000  1.004E-13
2064.200  1.004E-13
2064.400  1.824E-13
2064.600  1.588E-13
2064.800  9.759E-14
2065.000  1.130E-13
2065.200  8.856E-14
2065.400  1.052E-13
2065.600  1.055E-13
2065.800  9.999E-14
2066.000  1.044E-13
2066.200  2.010E-13
2066.400  2.045E-13
2066.600  1.146E-13
2066.800  1.173E-13
2067.000  9.784E-14
2067.200  1.006E-13
2067.400  1.032E-13
2067.600  1.019E-13
2067.800  1.025E-13
2068.000  1.048E-13
2068.200  1.075E-13
2068.400  9.200E-14
2068.600  1.334E-13
2068.800  1.321E-13
2069.000  1.035E-13
2069.200  1.017E-13
2069.400  8.945E-14
2069.600  9.453E-14
2069.800  9.319E-14
2070.000  1.058E-13
2070.200  1.035E-13
2070.400  1.048E-13
2070.600  1.055E-13
2070.800  1.064E-13
2071.000  1.138E-13
2071.200  1.171E-13
2071.400  1.076E-13
2071.600  9.986E-14
2071.800  1.062E-13
2072.000  1.068E-13
2072.200  1.054E-13
2072.400  1.075E-13
2072.600  1.755E-13
2072.800  1.087E-13
2073.000  9.660E-14
2073.200  9.905E-14
2073.400  1.185E-13
2073.600  1.138E-13
2073.800  1.174E-13
2074.000  1.315E-13
2074.200  1.178E-13
2074.400  1.136E-13
2074.600  1.102E-13
2074.800  1.075E-13
2075.000  1.179E-13
2075.200  1.094E-13
2075.400  8.882E-14
2075.600  1.160E-13
2075.800  1.257E-13
2076.000  1.327E-13
2076.200  1.152E-13
2076.400  1.272E-13
2076.600  1.251E-13
2076.800  1.122E-13
2077.000  1.137E-13
2077.200  1.101E-13
2077.400  1.142E-13
2077.600  1.244E-13
2077.800  1.019E-13
2078.000  1.158E-13
2078.200  9.757E-14
2078.400  1.144E-13
2078.600  1.363E-13
2078.800  1.348E-13
2079.000  1.206E-13
2079.200  1.224E-13
2079.400  1.165E-13
2079.600  1.138E-13
2079.800  1.255E-13
2080.000  1.298E-13
2080.200  1.217E-13
2080.400  1.133E-13
2080.600  1.221E-13
2080.800  1.251E-13
2081.000  1.653E-13
2081.200  1.415E-13
2081.400  1.189E-13
2081.600  1.229E-13
2081.800  1.262E-13
2082.000  1.149E-13
2082.200  9.422E-14
2082.400  1.153E-13
2082.600  1.378E-13
2082.800  1.332E-13
2083.000  1.476E-13
2083.200  1.258E-13
2083.400  1.286E-13
2083.600  1.211E-13
2083.800  1.118E-13
2084.000  1.496E-13
2084.200  1.585E-13
2084.400  1.675E-13
2084.600  1.262E-13
2084.800  1.255E-13
2085.000  1.221E-13
2085.200  1.207E-13
2085.400  1.577E-13
2085.600  1.700E-13
2085.800  1.519E-13
2086.000  1.164E-13
2086.200  1.396E-13
2086.400  1.478E-13
2086.600  1.854E-13
2086.800  1.712E-13
2087.000  1.360E-13
2087.200  1.648E-13
2087.400  1.615E-13
2087.600  1.775E-13
2087.800  1.658E-13
2088.000  1.378E-13
2088.200  1.051E-13
2088.400  1.588E-13
2088.600  1.732E-13
2088.800  1.915E-13
2089.000  1.893E-13
2089.200  1.869E-13
2089.400  1.181E-13
2089.600  1.734E-13
2089.800  1.256E-13
2090.000  1.541E-13
2090.200  1.580E-13
2090.400  1.621E-13
2090.600  1.304E-13
2090.800  1.439E-13
2091.000  1.373E-13
2091.200  1.561E-13
2091.400  1.598E-13
2091.600  1.733E-13
2091.800  1.805E-13
2092.000  1.896E-13
2092.200  1.995E-13
2092.400  1.918E-13
2092.600  1.157E-13
2092.800  1.184E-13
2093.000  1.793E-13
2093.200  1.986E-13
2093.400  1.888E-13
2093.600  1.910E-13
2093.800  2.024E-13
2094.000  1.902E-13
2094.200  1.625E-13
2094.400  1.684E-13
2094.600  1.530E-13
2094.800  1.459E-13
2095.000  1.326E-13
2095.200  1.917E-13
2095.400  1.917E-13
2095.600  2.019E-13
2095.800  3.166E-13
2096.000  2.036E-13
2096.200  2.122E-13
2096.400  2.111E-13
2096.600  1.722E-13
2096.800  1.749E-13
2097.000  1.924E-13
2097.200  1.927E-13
2097.400  1.590E-13
2097.600  1.799E-13
2097.800  2.122E-13
2098.000  2.325E-13
2098.200  2.082E-13
2098.400  2.455E-13
2098.600  2.040E-13
2098.800  1.808E-13
2099.000  2.362E-13
2099.200  2.350E-13
2099.400  1.530E-13
2099.600  1.556E-13
2099.800  1.469E-13
2100.000  1.963E-13
2100.200  1.762E-13
2100.400  1.794E-13
2100.600  1.365E-13
2100.800  1.320E-13
2101.000  1.869E-13
2101.200  1.918E-13
2101.400  1.929E-13
2101.600  1.509E-13
2101.800  2.030E-13
2102.000  2.348E-13
2102.200  2.043E-13
2102.400  2.468E-13
2102.600  2.380E-13
2102.800  2.219E-13
2103.000  1.859E-13
2103.200  1.482E-13
2103.400  1.949E-13
2103.600  1.924E-13
2103.800  1.249E-13
2104.000  1.632E-13
2104.200  1.632E-13
2104.400  1.482E-13
2104.600  1.760E-13
2104.800  1.684E-13
2105.000  2.355E-13
2105.200  2.149E-13
2105.400  2.049E-13
2105.600  2.233E-13
2105.800  2.230E-13
2106.000  2.130E-13
2106.200  2.107E-13
2106.400  2.048E-13
2106.600  2.063E-13
2106.800  2.056E-13
2107.000  1.885E-13
2107.200  1.665E-13
2107.400  1.822E-13
2107.600  2.029E-13
2107.800  2.155E-13
2108.000  1.723E-13
2108.200  2.225E-13
2108.400  2.142E-13
2108.600  2.446E-13
2108.800  2.196E-13
2109.000  1.627E-13
2109.200  1.771E-13
2109.400  1.499E-13
2109.600  1.520E-13
2109.800  1.418E-13
2110.000  1.601E-13
2110.200  1.914E-13
2110.400  1.732E-13
2110.600  1.275E-13
2110.800  1.544E-13
2111.000  1.652E-13
2111.200  1.849E-13
2111.400  2.017E-13
2111.600  2.254E-13
2111.800  2.353E-13
2112.000  2.170E-13
2112.200  2.099E-13
2112.400  2.312E-13
2112.600  2.335E-13
2112.800  2.994E-13
2113.000  2.743E-13
2113.200  2.484E-13
2113.400  2.322E-13
2113.600  2.082E-13
2113.800  1.470E-13
2114.000  1.898E-13
2114.200  1.939E-13
2114.400  2.209E-13
2114.600  2.338E-13
2114.800  1.909E-13
2115.000  2.165E-13
2115.200  2.000E-13
2115.400  1.289E-13
2115.600  1.584E-13
2115.800  1.560E-13
2116.000  1.705E-13
2116.200  2.282E-13
2116.400  2.175E-13
2116.600  2.449E-13
2116.800  2.461E-13
2117.000  2.446E-13
2117.200  2.383E-13
2117.400  2.450E-13
2117.600  2.195E-13
2117.800  2.329E-13
2118.000  2.791E-13
2118.200  2.586E-13
2118.400  2.445E-13
2118.600  2.272E-13
2118.800  2.424E-13
2119.000  2.289E-13
2119.200  1.781E-13
2119.400  1.774E-13
2119.600  2.639E-13
2119.800  2.465E-13
2120.000  2.088E-13
2120.200  2.456E-13
2120.400  2.466E-13
2120.600  2.608E-13
2120.800  3.005E-13
2121.000  2.949E-13
2121.200  2.636E-13
2121.400  2.491E-13
2121.600  2.398E-13
2121.800  2.425E-13
2122.000  1.917E-13
2122.200  2.377E-13
2122.400  2.403E-13
2122.600  2.144E-13
2122.800  2.243E-13
2123.000  2.122E-13
2123.200  2.458E-13
2123.400  2.498E-13
2123.600  2.949E-13
2123.800  6.866E-13
2124.000  2.471E-13
2124.200  1.577E-13
2124.400  1.647E-13
2124.600  1.638E-13
2124.800  2.189E-13
2125.000  2.349E-13
2125.200  1.350E-13
2125.400  1.913E-13
2125.600  1.691E-13
2125.800  3.143E-13
2126.000  3.436E-13
2126.200  1.921E-13
2126.400  1.921E-13
2126.600  2.276E-13
2126.800  2.036E-13
2127.000  2.155E-13
2127.200  2.393E-13
2127.400  2.106E-13
2127.600  1.870E-13
2127.800  1.962E-13
2128.000  2.070E-13
2128.200  2.107E-13
2128.400  2.239E-13
2128.600  2.231E-13
2128.800  2.575E-13
2129.000  2.842E-13
2129.200  1.958E-13
2129.400  2.490E-13
2129.600  2.632E-13
2129.800  2.574E-13
2130.000  2.782E-13
2130.200  2.782E-13
2130.400  1.655E-13
2130.600  2.086E-13
2130.800  2.448E-13
2131.000  2.661E-13
2131.200  2.373E-13
2131.400  1.848E-13
2131.600  2.168E-13
2131.800  1.942E-13
2132.000  2.606E-13
2132.200  2.813E-13
2132.400  2.444E-13
2132.600  2.569E-13
2132.800  1.994E-13
2133.000  1.894E-13
2133.200  1.889E-13
2133.400  2.090E-13
2133.600  2.577E-13
2133.800  2.398E-13
2134.000  2.728E-13
2134.200  2.292E-13
2134.400  2.721E-13
2134.600  2.867E-13
2134.800  2.855E-13
2135.000  2.194E-13
2135.200  2.665E-13
2135.400  2.388E-13
2135.600  1.639E-13
2135.800  2.072E-13
2136.000  2.325E-13
2136.200  2.142E-13
2136.400  2.494E-13
2136.600  2.123E-13
2136.800  2.351E-13
2137.000  2.341E-13
2137.200  2.412E-13
2137.400  2.546E-13
2137.600  2.663E-13
2137.800  2.749E-13
2138.000  2.841E-13
2138.200  2.233E-13
2138.400  3.262E-13
2138.600  3.459E-13
2138.800  2.334E-13
2139.000  2.422E-13
2139.200  2.424E-13
2139.400  1.443E-13
2139.600  2.168E-13
2139.800  2.190E-13
2140.000  2.239E-13
2140.200  2.526E-13
2140.400  3.445E-13
2140.600  2.339E-13
2140.800  2.136E-13
2141.000  2.383E-13
2141.200  2.310E-13
2141.400  2.733E-13
2141.600  2.917E-13
2141.800  3.336E-13
2142.000  2.873E-13
2142.200  2.425E-13
2142.400  2.155E-13
2142.600  2.647E-13
2142.800  2.691E-13
2143.000  2.494E-13
2143.200  2.421E-13
2143.400  2.932E-13
2143.600  2.942E-13
2143.800  3.154E-13
2144.000  3.280E-13
2144.200  2.303E-13
2144.400  2.225E-13
2144.600  2.347E-13
2144.800  2.910E-13
2145.000  2.871E-13
2145.200  2.575E-13
2145.400  2.520E-13
2145.600  2.786E-13
2145.800  2.549E-13
2146.000  2.033E-13
2146.200  2.768E-13
2146.400  2.372E-13
2146.600  2.570E-13
2146.800  4.568E-13
2147.000  4.237E-13
2147.200  2.625E-13
2147.400  2.801E-13
2147.600  2.016E-13
2147.800  2.161E-13
2148.000  2.571E-13
2148.200  2.571E-13
2148.400  2.325E-13
2148.600  2.271E-13
2148.800  2.514E-13
2149.000  2.722E-13
2149.200  2.325E-13
2149.400  3.298E-13
2149.600  2.927E-13
2149.800  2.530E-13
2150.000  2.687E-13
2150.200  2.730E-13
2150.400  2.604E-13
2150.600  3.066E-13
2150.800  2.715E-13
2151.000  2.715E-13
2151.200  1.858E-13
2151.400  2.061E-13
2151.600  1.740E-13
2151.800  1.856E-13
2152.000  1.968E-13
2152.200  2.587E-13
2152.400  2.624E-13
2152.600  1.946E-13
2152.800  2.558E-13
2153.000  2.492E-13
2153.200  2.498E-13
2153.400  2.518E-13
2153.600  2.660E-13
2153.800  1.914E-13
2154.000  3.082E-13
2154.200  3.109E-13
2154.400  3.092E-13
2154.600  3.342E-13
2154.800  3.291E-13
2155.000  2.415E-13
2155.200  2.157E-13
2155.400  2.452E-13
2155.600  2.293E-13
2155.800  2.119E-13
2156.000  1.791E-13
2156.200  2.649E-13
2156.400  2.425E-13
2156.600  2.485E-13
2156.800  2.604E-13
2157.000  2.628E-13
2157.200  2.456E-13
2157.400  2.153E-13
2157.600  2.078E-13
2157.800  2.308E-13
2158.000  2.167E-13
2158.200  1.871E-13
2158.400  1.951E-13
2158.600  1.679E-13
2158.800  2.338E-13
2159.000  2.326E-13
2159.200  1.780E-13
2159.400  1.544E-13
2159.600  2.057E-13
2159.800  1.698E-13
2160.000  2.787E-13
2160.200  2.797E-13
2160.400  1.739E-13
2160.600  2.190E-13
2160.800  2.752E-13
2161.000  2.736E-13
2161.200  2.620E-13
2161.400  3.512E-13
2161.600  2.861E-13
2161.800  2.445E-13
2162.000  4.690E-13
2162.200  3.450E-13
2162.400  2.082E-13
2162.600  2.646E-13
2162.800  3.524E-13
2163.000  2.952E-13
2163.200  1.953E-13
2163.400  2.430E-13
2163.600  2.666E-13
2163.800  2.642E-13
2164.000  2.593E-13
2164.200  2.410E-13
2164.400  2.586E-13
2164.600  2.263E-13
2164.800  2.891E-13
2165.000  3.093E-13
2165.200  2.612E-13
2165.400  2.699E-13
2165.600  3.771E-13
2165.800  2.751E-13
2166.000  2.271E-13
2166.200  2.461E-13
2166.400  2.465E-13
2166.600  2.326E-13
2166.800  2.006E-13
2167.000  1.857E-13
2167.200  1.953E-13
2167.400  1.516E-13
2167.600  9.755E-14
2167.800  1.448E-13
2168.000  1.834E-13
2168.200  1.972E-13
2168.400  2.247E-13
2168.600  2.502E-13
2168.800  2.524E-13
2169.000  3.018E-13
2169.200  3.005E-13
2169.400  2.953E-13
2169.600  2.574E-13
2169.800  2.926E-13
2170.000  2.542E-13
2170.200  2.468E-13
2170.400  2.149E-13
2170.600  2.073E-13
2170.800  2.732E-13
2171.000  2.927E-13
2171.200  3.299E-13
2171.400  2.458E-13
2171.600  2.888E-13
2171.800  2.764E-13
2172.000  2.422E-13
2172.200  2.096E-13
2172.400  2.561E-13
2172.600  2.924E-13
2172.800  2.958E-13
2173.000  2.219E-13
2173.200  2.906E-13
2173.400  2.839E-13
2173.600  3.073E-13
2173.800  3.038E-13
2174.000  2.473E-13
2174.200  2.753E-13
2174.400  2.535E-13
2174.600  2.417E-13
2174.800  2.326E-13
2175.000  2.528E-13
2175.200  2.638E-13
2175.400  2.358E-13
2175.600  2.619E-13
2175.800  3.495E-13
2176.000  3.161E-13
2176.200  3.370E-13
2176.400  3.223E-13
2176.600  2.967E-13
2176.800  2.458E-13
2177.000  2.759E-13
2177.200  3.110E-13
2177.400  3.242E-13
2177.600  1.928E-13
2177.800  2.050E-13
2178.000  2.404E-13
2178.200  2.243E-13
2178.400  1.978E-13
2178.600  1.871E-13
2178.800  1.578E-13
2179.000  1.557E-13
2179.200  2.179E-13
2179.400  2.387E-13
2179.600  2.365E-13
2179.800  2.626E-13
2180.000  3.061E-13
2180.200  2.718E-13
2180.400  3.065E-13
2180.600  3.448E-13
2180.800  3.443E-13
2181.000  2.711E-13
2181.200  2.705E-13
2181.400  3.219E-13
2181.600  3.470E-13
2181.800  2.746E-13
2182.000  3.178E-13
2182.200  3.154E-13
2182.400  2.421E-13
2182.600  3.429E-13
2182.800  3.257E-13
2183.000  2.915E-13
2183.200  2.826E-13
2183.400  2.999E-13
2183.600  2.962E-13
2183.800  3.084E-13
2184.000  3.112E-13
2184.200  2.634E-13
2184.400  2.515E-13
2184.600  2.366E-13
2184.800  2.535E-13
2185.000  2.583E-13
2185.200  2.807E-13
2185.400  2.089E-13
2185.600  2.790E-13
2185.800  2.856E-13
2186.000  3.097E-13
2186.200  2.730E-13
2186.400  3.526E-13
2186.600  3.310E-13
2186.800  2.624E-13
2187.000  2.548E-13
2187.200  1.712E-13
2187.400  1.871E-13
2187.600  1.980E-13
2187.800  1.672E-13
2188.000  1.419E-13
2188.200  2.579E-13
2188.400  2.747E-13
2188.600  3.143E-13
2188.800  3.368E-13
2189.000  3.798E-13
2189.200  3.436E-13
2189.400  2.685E-13
2189.600  2.353E-13
2189.800  2.838E-13
2190.000  2.845E-13
2190.200  2.207E-13
2190.400  2.448E-13
2190.600  3.979E-13
2190.800  3.603E-13
2191.000  2.922E-13
2191.200  3.400E-13
2191.400  3.469E-13
2191.600  2.819E-13
2191.800  3.132E-13
2192.000  2.816E-13
2192.200  2.815E-13
2192.400  2.812E-13
2192.600  1.847E-13
2192.800  2.350E-13
2193.000  2.326E-13
2193.200  3.044E-13
2193.400  3.671E-13
2193.600  3.993E-13
2193.800  4.394E-13
2194.000  4.099E-13
2194.200  3.315E-13
2194.400  2.813E-13
2194.600  3.573E-13
2194.800  4.214E-13
2195.000  3.870E-13
2195.200  3.938E-13
2195.400  3.029E-13
2195.600  2.953E-13
2195.800  3.046E-13
2196.000  3.702E-13
2196.200  3.718E-13
2196.400  2.552E-13
2196.600  2.416E-13
2196.800  2.006E-13
2197.000  2.833E-13
2197.200  3.088E-13
2197.400  3.291E-13
2197.600  3.697E-13
2197.800  3.720E-13
2198.000  3.742E-13
2198.200  3.826E-13
2198.400  4.185E-13
2198.600  3.300E-13
2198.800  2.964E-13
2199.000  3.165E-13
2199.200  2.991E-13
2199.400  3.031E-13
2199.600  3.236E-13
2199.800  3.312E-13
2200.000  3.070E-13
2200.200  3.255E-13
2200.400  2.662E-13
2200.600  2.949E-13
2200.800  2.917E-13
2201.000  2.194E-13
2201.200  1.711E-13
2201.400  1.745E-13
2201.600  2.037E-13
2201.800  2.593E-13
2202.000  2.814E-13
2202.200  2.786E-13
2202.400  2.935E-13
2202.600  3.453E-13
2202.800  3.705E-13
2203.000  4.275E-13
2203.200  4.272E-13
2203.400  4.033E-13
2203.600  4.556E-13
2203.800  4.608E-13
2204.000  4.070E-13
2204.200  3.286E-13
2204.400  4.376E-13
2204.600  4.005E-13
2204.800  3.679E-13
2205.000  3.037E-13
2205.200  3.402E-13
2205.400  3.374E-13
2205.600  3.462E-13
2205.800  3.579E-13
2206.000  4.207E-13
2206.200  4.809E-13
2206.400  3.704E-13
2206.600  4.039E-13
2206.800  4.195E-13
2207.000  3.571E-13
2207.200  3.405E-13
2207.400  3.224E-13
2207.600  3.664E-13
2207.800  3.807E-13
2208.000  4.026E-13
2208.200  3.966E-13
2208.400  3.412E-13
2208.600  2.791E-13
2208.800  2.552E-13
2209.000  2.771E-13
2209.200  2.963E-13
2209.400  2.944E-13
2209.600  2.419E-13
2209.800  3.538E-13
2210.000  4.526E-13
2210.200  4.102E-13
2210.400  3.480E-13
2210.600  3.256E-13
2210.800  2.423E-13
2211.000  3.473E-13
2211.200  3.544E-13
2211.400  2.531E-13
2211.600  2.711E-13
2211.800  2.774E-13
2212.000  2.588E-13
2212.200  2.753E-13
2212.400  3.134E-13
2212.600  2.817E-13
2212.800  3.348E-13
2213.000  2.969E-13
2213.200  3.402E-13
2213.400  3.850E-13
2213.600  4.579E-13
2213.800  4.517E-13
2214.000  5.094E-13
2214.200  5.249E-13
2214.400  5.378E-13
2214.600  5.252E-13
2214.800  3.710E-13
2215.000  3.888E-13
2215.200  4.341E-13
2215.400  4.224E-13
2215.600  4.197E-13
2215.800  4.240E-13
2216.000  3.647E-13
2216.200  3.168E-13
2216.400  2.601E-13
2216.600  3.127E-13
2216.800  3.098E-13
2217.000  2.473E-13
2217.200  4.228E-13
2217.400  4.307E-13
2217.600  3.844E-13
2217.800  2.583E-13
2218.000  2.972E-13
2218.200  2.853E-13
2218.400  2.554E-13
2218.600  2.671E-13
2218.800  3.013E-13
2219.000  2.988E-13
2219.200  2.796E-13
2219.400  3.655E-13
2219.600  3.313E-13
2219.800  3.278E-13
2220.000  3.294E-13
2220.200  3.504E-13
2220.400  3.664E-13
2220.600  3.558E-13
2220.800  3.401E-13
2221.000  3.733E-13
2221.200  3.841E-13
2221.400  3.830E-13
2221.600  3.617E-13
2221.800  4.369E-13
2222.000  4.261E-13
2222.200  3.080E-13
2222.400  4.545E-13
2222.600  4.539E-13
2222.800  3.097E-13
2223.000  4.138E-13
2223.200  4.398E-13
2223.400  4.401E-13
2223.600  3.329E-13
2223.800  3.746E-13
2224.000  4.546E-13
2224.200  4.358E-13
2224.400  3.639E-13
2224.600  3.685E-13
2224.800  4.551E-13
2225.000  4.563E-13
2225.200  4.212E-13
2225.400  3.934E-13
2225.600  3.864E-13
2225.800  4.196E-13
2226.000  4.147E-13
2226.200  4.351E-13
2226.400  4.612E-13
2226.600  3.489E-13
2226.800  4.993E-13
2227.000  4.923E-13
2227.200  3.452E-13
2227.400  4.309E-13
2227.600  4.505E-13
2227.800  3.820E-13
2228.000  4.004E-13
2228.200  4.047E-13
2228.400  4.059E-13
2228.600  3.391E-13
2228.800  3.780E-13
2229.000  4.042E-13
2229.200  5.419E-13
2229.400  4.498E-13
2229.600  4.619E-13
2229.800  3.936E-13
2230.000  4.369E-13
2230.200  4.869E-13
2230.400  3.076E-13
2230.600  4.785E-13
2230.800  4.937E-13
2231.000  3.525E-13
2231.200  3.892E-13
2231.400  3.931E-13
2231.600  3.898E-13
2231.800  2.704E-13
2232.000  2.739E-13
2232.200  3.430E-13
2232.400  4.691E-13
2232.600  4.463E-13
2232.800  4.279E-13
2233.000  5.261E-13
2233.200  5.778E-13
2233.400  4.954E-13
2233.600  5.614E-13
2233.800  6.787E-13
2234.000  6.056E-13
2234.200  5.814E-13
2234.400  6.365E-13
2234.600  6.237E-13
2234.800  4.860E-13
2235.000  4.526E-13
2235.200  4.647E-13
2235.400  6.276E-13
2235.600  5.263E-13
2235.800  6.088E-13
2236.000  5.860E-13
2236.200  4.917E-13
2236.400  5.568E-13
2236.600  6.221E-13
2236.800  6.370E-13
2237.000  5.305E-13
2237.200  4.699E-13
2237.400  6.347E-13
2237.600  6.538E-13
2237.800  4.658E-13
2238.000  4.573E-13
2238.200  4.578E-13
2238.400  4.350E-13
2238.600  2.996E-13
2238.800  5.122E-13
2239.000  4.831E-13
2239.200  3.067E-13
2239.400  3.364E-13
2239.600  4.289E-13
2239.800  4.115E-13
2240.000  4.267E-13
2240.200  5.470E-13
2240.400  5.306E-13
2240.600  4.674E-13
2240.800  4.513E-13
2241.000  4.892E-13
2241.200  6.821E-13
2241.400  5.249E-13
2241.600  4.482E-13
2241.800  4.470E-13
2242.000  4.183E-13
2242.200  4.272E-13
2242.400  4.272E-13
2242.600  4.151E-13
2242.800  3.945E-13
2243.000  4.202E-13
2243.200  5.129E-13
2243.400  5.051E-13
2243.600  3.978E-13
2243.800  4.219E-13
2244.000  4.365E-13
2244.200  5.422E-13
2244.400  5.538E-13
2244.600  4.407E-13
2244.800  4.535E-13
2245.000  3.764E-13
2245.200  4.355E-13
2245.400  5.911E-13
2245.600  5.755E-13
2245.800  4.571E-13
2246.000  4.968E-13
2246.200  5.416E-13
2246.400  5.070E-13
2246.600  5.014E-13
2246.800  5.028E-13
2247.000  4.700E-13
2247.200  4.032E-13
2247.400  4.075E-13
2247.600  5.646E-13
2247.800  5.364E-13
2248.000  6.381E-13
2248.200  4.046E-13
2248.400  5.099E-13
2248.600  6.840E-13
2248.800  6.497E-13
2249.000  5.945E-13
2249.200  5.035E-13
2249.400  4.723E-13
2249.600  4.487E-13
2249.800  5.448E-13
2250.000  1.314E-12
2250.200  8.357E-13
2250.400  6.092E-13
2250.600  5.995E-13
2250.800  5.713E-13
2251.000  8.230E-13
2251.200  6.365E-13
2251.400  6.136E-13
2251.600  6.528E-13
2251.800  9.811E-13
2252.000  6.023E-13
2252.200  4.873E-13
2252.400  9.178E-13
2252.600  6.862E-13
2252.800  5.538E-13
2253.000  5.932E-13
2253.200  6.058E-13
2253.400  5.459E-13
2253.600  5.915E-13
2253.800  9.507E-13
2254.000  1.274E-12
2254.200  6.588E-13
2254.400  4.932E-13
2254.600  3.993E-13
2254.800  6.506E-13
2255.000  6.159E-13
2255.200  7.640E-13
2255.400  7.619E-13
2255.600  5.101E-13
2255.800  5.608E-13
2256.000  5.786E-13
2256.200  5.270E-13
2256.400  7.138E-13
2256.600  6.046E-13
2256.800  7.508E-13
2257.000  4.953E-13
2257.200  4.036E-13
2257.400  4.128E-13
2257.600  3.902E-13
2257.800  4.192E-13
2258.000  4.371E-13
2258.200  3.776E-13
2258.400  3.700E-13
2258.600  3.943E-13
2258.800  3.878E-13
2259.000  3.702E-13
2259.200  3.982E-13
2259.400  4.324E-13
2259.600  4.220E-13
2259.800  4.970E-13
2260.000  4.593E-13
2260.200  3.154E-13
2260.400  2.682E-13
2260.600  4.389E-13
2260.800  1.789E-12
2261.000  1.886E-12
2261.200  7.304E-13
2261.400  4.112E-13
2261.600  9.428E-13
2261.800  9.183E-13
2262.000  5.143E-13
2262.200  3.687E-13
2262.400  3.141E-13
2262.600  3.956E-13
2262.800  4.436E-13
2263.000  4.244E-13
2263.200  5.295E-13
2263.400  6.849E-13
2263.600  8.123E-13
2263.800  4.835E-13
2264.000  4.654E-13
2264.200  3.498E-13
2264.400  3.838E-13
2264.600  4.091E-13
2264.800  4.967E-13
2265.000  4.515E-13
2265.200  3.557E-13
2265.400  3.599E-13
2265.600  3.660E-13
2265.800  3.234E-13
2266.000  4.020E-13
2266.200  5.186E-13
2266.400  4.634E-13
2266.600  4.157E-13
2266.800  9.396E-13
2267.000  7.061E-13
2267.200  4.019E-13
2267.400  4.608E-13
2267.600  4.452E-13
2267.800  3.083E-13
2268.000  3.823E-13
2268.200  4.332E-13
2268.400  1.282E-12
2268.600  9.567E-13
2268.800  4.115E-13
2269.000  4.096E-13
2269.200  4.697E-13
2269.400  7.505E-13
2269.600  9.126E-13
2269.800  8.333E-13
2270.000  2.452E-13
2270.200  3.842E-13
2270.400  4.020E-13
2270.600  3.797E-13
2270.800  4.558E-13
2271.000  3.936E-13
2271.200  3.359E-13
2271.400  4.439E-13
2271.600  3.498E-13
2271.800  4.199E-13
2272.000  4.300E-13
2272.200  3.564E-13
2272.400  4.439E-13
2272.600  4.326E-13
2272.800  3.757E-13
2273.000  3.456E-13
2273.200  5.845E-13
2273.400  5.851E-13
2273.600  3.255E-13
2273.800  4.691E-13
2274.000  4.558E-13
2274.200  4.533E-13
2274.400  4.444E-13
2274.600  4.047E-13
2274.800  3.078E-13
2275.000  4.556E-13
2275.200  4.900E-13
2275.400  4.356E-13
2275.600  5.156E-13
2275.800  6.049E-13
2276.000  5.350E-13
2276.200  4.005E-13
2276.400  3.265E-13
2276.600  3.337E-13
2276.800  6.837E-13
2277.000  6.889E-13
2277.200  5.443E-13
2277.400  4.631E-13
2277.600  5.997E-13
2277.800  6.301E-13
2278.000  5.381E-13
2278.200  5.871E-13
2278.400  4.293E-13
2278.600  4.523E-13
2278.800  4.886E-13
2279.000  4.999E-13
2279.200  5.357E-13
2279.400  5.802E-13
2279.600  4.044E-13
2279.800  5.275E-13
2280.000  6.027E-13
2280.200  6.174E-13
2280.400  4.497E-13
2280.600  1.347E-12
2280.800  1.951E-12
2281.000  7.384E-13
2281.200  4.892E-13
2281.400  5.222E-13
2281.600  5.656E-13
2281.800  5.862E-13
2282.000  5.999E-13
2282.200  6.235E-13
2282.400  5.520E-13
2282.600  5.630E-13
2282.800  5.912E-13
2283.000  6.844E-13
2283.200  7.207E-13
2283.400  6.985E-13
2283.600  4.793E-13
2283.800  4.034E-13
2284.000  3.960E-13
2284.200  4.423E-13
2284.400  4.483E-13
2284.600  5.152E-13
2284.800  5.112E-13
2285.000  3.939E-13
2285.200  5.177E-13
2285.400  5.804E-13
2285.600  5.931E-13
2285.800  4.999E-13
2286.000  6.058E-13
2286.200  6.558E-13
2286.400  7.015E-13
2286.600  7.467E-13
2286.800  6.476E-13
2287.000  4.950E-13
2287.200  4.352E-13
2287.400  5.642E-13
2287.600  4.560E-13
2287.800  4.691E-13
2288.000  3.996E-13
2288.200  3.718E-13
2288.400  3.931E-13
2288.600  4.400E-13
2288.800  5.592E-13
2289.000  7.404E-13
2289.200  7.443E-13
2289.400  5.375E-13
2289.600  5.201E-13
2289.800  5.113E-13
2290.000  5.998E-13
2290.200  6.011E-13
2290.400  4.909E-13
2290.600  5.005E-13
2290.800  3.979E-13
2291.000  4.409E-13
2291.200  4.824E-13
2291.400  4.215E-13
2291.600  4.603E-13
2291.800  4.391E-13
2292.000  4.334E-13
2292.200  5.414E-13
2292.400  5.564E-13
2292.600  5.684E-13
2292.800  6.056E-13
2293.000  5.832E-13
2293.200  5.823E-13
2293.400  5.003E-13
2293.600  7.135E-13
2293.800  6.249E-13
2294.000  5.206E-13
2294.200  5.876E-13
2294.400  8.029E-13
2294.600  8.224E-13
2294.800  4.251E-13
2295.000  5.445E-13
2295.200  5.501E-13
2295.400  5.523E-13
2295.600  5.806E-13
2295.800  5.842E-13
2296.000  5.238E-13
2296.200  4.823E-13
2296.400  7.644E-13
2296.600  7.887E-13
2296.800  8.257E-13
2297.000  5.599E-13
2297.200  6.728E-13
2297.400  6.723E-13
2297.600  5.679E-13
2297.800  5.274E-13
2298.000  5.757E-13
2298.200  5.691E-13
2298.400  5.133E-13
2298.600  4.358E-13
2298.800  3.449E-13
2299.000  2.717E-13
2299.200  4.516E-13
2299.400  4.683E-13
2299.600  5.592E-13
2299.800  5.318E-13
2300.000  3.559E-13
2300.200  3.482E-13
2300.400  4.432E-13
2300.600  4.201E-13
2300.800  3.972E-13
2301.000  3.211E-13
2301.200  4.310E-13
2301.400  4.213E-13
2301.600  3.172E-13
2301.800  5.112E-13
2302.000  4.406E-13
2302.200  4.504E-13
2302.400  4.074E-13
2302.600  5.567E-13
2302.800  5.788E-13
2303.000  4.571E-13
2303.200  4.974E-13
2303.400  4.971E-13
2303.600  5.083E-13
2303.800  4.501E-13
2304.000  4.530E-13
2304.200  4.545E-13
2304.400  4.206E-13
2304.600  4.529E-13
2304.800  5.231E-13
2305.000  5.456E-13
2305.200  4.707E-13
2305.400  4.647E-13
2305.600  4.778E-13
2305.800  5.952E-13
2306.000  5.418E-13
2306.200  5.797E-13
2306.400  5.797E-13
2306.600  6.833E-13
2306.800  7.017E-13
2307.000  6.610E-13
2307.200  6.302E-13
2307.400  5.363E-13
2307.600  6.249E-13
2307.800  7.134E-13
2308.000  7.206E-13
2308.200  5.361E-13
2308.400  6.284E-13
2308.600  5.944E-13
2308.800  6.016E-13
2309.000  5.981E-13
2309.200  6.682E-13
2309.400  6.301E-13
2309.600  6.491E-13
2309.800  4.917E-13
2310.000  4.709E-13
2310.200  5.448E-13
2310.400  4.537E-13
2310.600  5.105E-13
2310.800  4.758E-13
2311.000  4.669E-13
2311.200  4.889E-13
2311.400  5.052E-13
2311.600  3.958E-13
2311.800  2.695E-13
2312.000  3.748E-13
2312.200  3.945E-13
2312.400  3.973E-13
2312.600  5.523E-13
2312.800  5.429E-13
2313.000  4.817E-13
2313.200  3.290E-13
2313.400  4.073E-13
2313.600  4.827E-13
2313.800  4.731E-13
2314.000  3.971E-13
2314.200  4.540E-13
2314.400  4.577E-13
2314.600  3.831E-13
2314.800  3.705E-13
2315.000  4.794E-13
2315.200  7.050E-13
2315.400  6.538E-13
2315.600  6.536E-13
2315.800  5.752E-13
2316.000  7.526E-13
2316.200  8.899E-13
2316.400  7.315E-13
2316.600  7.384E-13
2316.800  7.554E-13
2317.000  7.525E-13
2317.200  7.815E-13
2317.400  6.987E-13
2317.600  6.899E-13
2317.800  5.360E-13
2318.000  3.325E-13
2318.200  7.061E-13
2318.400  7.061E-13
2318.600  5.752E-13
2318.800  6.410E-13
2319.000  6.527E-13
2319.200  7.342E-13
2319.400  7.349E-13
2319.600  6.925E-13
2319.800  7.089E-13
2320.000  5.367E-13
2320.200  5.844E-13
2320.400  4.986E-13
2320.600  3.826E-13
2320.800  3.232E-13
2321.000  3.005E-13
2321.200  2.969E-13
2321.400  5.017E-13
2321.600  5.871E-13
2321.800  5.927E-13
2322.000  4.917E-13
2322.200  3.802E-13
2322.400  3.909E-13
2322.600  4.761E-13
2322.800  4.237E-13
2323.000  6.712E-13
2323.200  8.485E-13
2323.400  8.182E-13
2323.600  7.556E-13
2323.800  7.475E-13
2324.000  6.298E-13
2324.200  6.392E-13
2324.400  8.545E-13
2324.600  9.057E-13
2324.800  8.995E-13
2325.000  7.474E-13
2325.200  6.509E-13
2325.400  6.509E-13
2325.600  7.921E-13
2325.800  7.716E-13
2326.000  5.287E-13
2326.200  7.175E-13
2326.400  6.727E-13
2326.600  3.783E-13
2326.800  4.323E-13
2327.000  4.317E-13
2327.200  5.218E-13
2327.400  7.032E-13
2327.600  7.694E-13
2327.800  6.313E-13
2328.000  7.272E-13
2328.200  1.681E-12
2328.400  1.556E-12
2328.600  7.793E-13
2328.800  7.711E-13
2329.000  8.118E-13
2329.200  7.778E-13
2329.400  7.091E-13
2329.600  7.254E-13
2329.800  5.386E-13
2330.000  7.365E-13
2330.200  8.517E-13
2330.400  8.746E-13
2330.600  5.331E-13
2330.800  4.484E-13
2331.000  6.394E-13
2331.200  9.417E-13
2331.400  8.311E-13
2331.600  7.358E-13
2331.800  7.189E-13
2332.000  1.353E-12
2332.200  1.666E-12
2332.400  1.034E-12
2332.600  6.151E-13
2332.800  6.579E-13
2333.000  7.191E-13
2333.200  7.235E-13
2333.400  8.188E-13
2333.600  1.786E-12
2333.800  1.625E-12
2334.000  6.093E-13
2334.200  6.065E-13
2334.400  7.382E-13
2334.600  7.241E-13
2334.800  8.415E-13
2335.000  7.004E-13
2335.200  2.397E-12
2335.400  2.338E-12
2335.600  1.676E-12
2335.800  8.179E-13
2336.000  8.107E-13
2336.200  9.258E-13
2336.400  8.986E-13
2336.600  7.588E-13
2336.800  7.897E-13
2337.000  6.806E-13
2337.200  7.188E-13
2337.400  6.977E-13
2337.600  7.928E-13
2337.800  7.909E-13
2338.000  5.356E-13
2338.200  5.868E-13
2338.400  5.052E-13
2338.600  5.546E-13
2338.800  1.676E-12
2339.000  1.561E-12
2339.200  5.779E-13
2339.400  4.614E-13
2339.600  5.501E-13
2339.800  5.900E-13
2340.000  6.114E-13
2340.200  6.035E-13
2340.400  5.066E-13
2340.600  6.612E-13
2340.800  7.037E-13
2341.000  6.162E-13
2341.200  7.522E-13
2341.400  7.734E-13
2341.600  6.768E-13
2341.800  6.590E-13
2342.000  6.601E-13
2342.200  8.458E-13
2342.400  7.481E-13
2342.600  8.529E-13
2342.800  9.126E-13
2343.000  9.222E-13
2343.200  6.862E-13
2343.400  6.731E-13
2343.600  6.515E-13
2343.800  6.164E-13
2344.000  5.235E-13
2344.200  1.579E-12
2344.400  1.874E-12
2344.600  9.643E-13
2344.800  1.336E-12
2345.000  1.832E-12
2345.200  1.931E-12
2345.400  8.383E-13
2345.600  5.260E-13
2345.800  5.329E-13
2346.000  4.660E-13
2346.200  5.162E-13
2346.400  5.045E-13
2346.600  4.557E-13
2346.800  4.487E-13
2347.000  4.411E-13
2347.200  4.393E-13
2347.400  4.730E-13
2347.600  5.813E-13
2347.800  6.211E-13
2348.000  5.693E-13
2348.200  5.856E-13
2348.400  3.840E-13
2348.600  5.228E-13
2348.800  1.226E-12
2349.000  1.984E-12
2349.200  1.961E-12
2349.400  9.939E-13
2349.600  4.831E-13
2349.800  5.833E-13
2350.000  5.394E-13
2350.200  6.076E-13
2350.400  5.334E-13
2350.600  6.287E-13
2350.800  7.607E-13
2351.000  2.279E-12
2351.200  1.584E-12
2351.400  6.041E-13
2351.600  7.371E-13
2351.800  6.340E-13
2352.000  6.678E-13
2352.200  6.381E-13
2352.400  7.419E-13
2352.600  7.986E-13
2352.800  6.480E-13
2353.000  7.592E-13
2353.200  7.434E-13
2353.400  8.022E-13
2353.600  8.229E-13
2353.800  7.904E-13
2354.000  8.404E-13
2354.200  7.036E-13
2354.400  6.647E-13
2354.600  6.561E-13
2354.800  7.524E-13
2355.000  6.959E-13
2355.200  5.908E-13
2355.400  5.816E-13
2355.600  1.013E-12
2355.800  1.175E-12
2356.000  6.032E-13
2356.200  5.943E-13
2356.400  6.596E-13
2356.600  6.494E-13
2356.800  8.435E-13
2357.000  8.964E-13
2357.200  6.422E-13
2357.400  7.390E-13
2357.600  8.312E-13
2357.800  6.812E-13
2358.000  7.081E-13
2358.200  8.490E-13
2358.400  8.296E-13
2358.600  7.307E-13
2358.800  8.024E-13
2359.000  8.344E-13
2359.200  7.952E-13
2359.400  7.491E-13
2359.600  6.655E-13
2579.200  2.895E-12
2579.400  3.216E-12
2579.600  3.286E-12
2579.800  2.720E-12
2580.000  2.870E-12
2580.200  2.610E-12
2580.400  2.524E-12
2580.600  3.490E-12
2580.800  3.460E-12
2581.000  3.536E-12
2581.200  3.875E-12
2581.400  1.836E-12
2581.600  3.525E-12
2581.800  3.453E-12
2582.000  3.614E-12
2582.200  4.261E-12
2582.400  4.127E-12
2582.600  3.810E-12
2582.800  3.618E-12
2583.000  3.356E-12
2583.200  1.824E-12
2583.400  2.141E-12
2583.600  2.153E-12
2583.800  2.433E-12
2584.000  2.688E-12
2584.200  2.640E-12
2584.400  3.739E-12
2584.600  2.851E-12
2584.800  3.000E-12
2585.000  2.168E-12
2585.200  1.755E-12
2585.400  1.830E-12
2585.600  2.271E-12
2585.800  2.440E-12
2586.000  2.060E-12
2586.200  1.766E-12
2586.400  1.716E-12
2586.600  4.226E-12
2586.800  5.719E-12
2587.000  4.190E-12
2587.200  1.787E-12
2587.400  1.780E-12
2587.600  2.383E-12
2587.800  2.669E-12
2588.000  2.527E-12
2588.200  2.037E-12
2588.400  2.929E-12
2588.600  2.501E-12
2588.800  2.101E-12
2589.000  1.859E-12
2589.200  1.919E-12
2589.400  2.763E-12
2589.600  2.903E-12
2589.800  2.777E-12
2590.000  3.117E-12
2590.200  4.195E-12
2590.400  3.051E-12
2590.600  2.896E-12
2590.800  3.040E-12
2591.000  3.002E-12
2591.200  3.019E-12
2591.400  3.046E-12
2591.600  2.772E-12
2591.800  2.024E-12
2592.000  2.638E-12
2592.200  2.579E-12
2592.400  2.039E-12
2592.600  1.825E-12
2592.800  2.513E-12
2593.000  3.448E-12
2593.200  2.815E-12
2593.400  3.211E-12
2593.600  3.168E-12
2593.800  2.417E-12
2594.000  2.425E-12
2594.200  2.419E-12
2594.400  1.986E-12
2594.600  1.479E-12
2594.800  1.739E-12
2595.000  1.523E-12
2595.200  2.282E-12
2595.400  2.310E-12
2595.600  2.510E-12
2595.800  2.673E-12
2596.000  2.832E-12
2596.200  3.199E-12
2596.400  3.164E-12
2596.600  2.667E-12
2596.800  2.434E-12
2597.000  2.673E-12
2597.200  3.324E-12
2597.400  2.235E-12
2597.600  2.641E-12
2597.800  2.644E-12
2598.000  2.202E-12
2598.200  2.658E-12
2598.400  2.566E-12
2598.600  2.076E-12
2598.800  1.830E-12
2599.000  1.692E-12
2599.200  4.649E-12
2599.400  4.967E-12
2599.600  1.727E-12
2599.800  1.465E-12
2600.000  1.568E-12
2600.200  7.562E-12
2600.400  7.237E-12
2600.600  1.954E-12
2600.800  1.505E-12
2601.000  1.639E-12
2601.200  1.588E-12
2601.400  1.895E-12
2601.600  2.559E-12
2601.800  2.457E-12
2602.000  2.585E-12
2602.200  2.844E-12
2602.400  2.191E-12
2602.600  3.000E-12
2602.800  2.911E-12
2603.000  3.077E-12
2603.200  3.133E-12
2603.400  2.134E-12
2603.600  2.837E-12
2603.800  2.851E-12
2604.000  3.310E-12
2604.200  3.443E-12
2604.400  2.589E-12
2604.600  2.421E-12
2604.800  2.196E-12
2605.000  2.845E-12
2605.200  3.339E-12
2605.400  3.145E-12
2605.600  3.049E-12
2605.800  2.477E-12
2606.000  2.680E-12
2606.200  2.704E-12
2606.400  1.900E-12
2606.600  1.807E-12
2606.800  2.155E-12
2607.000  2.458E-12
2607.200  2.265E-12
2607.400  1.810E-12
2607.600  1.597E-12
2607.800  2.921E-12
2608.000  4.535E-12
2608.200  3.984E-12
2608.400  2.141E-12
2608.600  2.180E-12
2608.800  2.545E-12
2609.000  2.514E-12
2609.200  2.609E-12
2609.400  2.096E-12
2609.600  2.146E-12
2609.800  2.684E-12
2610.000  2.437E-12
2610.200  2.832E-12
2610.400  2.708E-12
2610.600  3.036E-12
2610.800  2.847E-12
2611.000  3.243E-12
2611.200  2.924E-12
2611.400  2.992E-12
2611.600  2.444E-12
2611.800  2.178E-12
2612.000  2.370E-12
2612.200  1.913E-12
2612.400  1.743E-12
2612.600  4.413E-12
2612.800  6.129E-12
2613.000  4.952E-12
2613.200  1.679E-12
2613.400  1.999E-12
2613.600  2.059E-12
2613.800  2.223E-12
2614.000  2.513E-12
2614.200  2.374E-12
2614.400  2.088E-12
2614.600  3.739E-12
2614.800  3.652E-12
2615.000  2.059E-12
2615.200  2.347E-12
2615.400  2.396E-12
2615.600  2.923E-12
2615.800  2.709E-12
2616.000  3.047E-12
2616.200  3.040E-12
2616.400  2.440E-12
2616.600  3.067E-12
2616.800  2.650E-12
2617.000  2.525E-12
2617.200  2.549E-12
2617.400  2.891E-12
2617.600  3.451E-12
2617.800  2.855E-12
2618.000  2.900E-12
2618.200  2.376E-12
2618.400  5.129E-12
2618.600  5.544E-12
2618.800  2.257E-12
2619.000  1.601E-12
2619.200  2.486E-12
2619.400  2.622E-12
2619.600  2.418E-12
2619.800  2.136E-12
2620.000  5.301E-12
2620.200  3.382E-12
2620.400  3.503E-12
2620.600  3.539E-12
2620.800  3.463E-12
2621.000  2.734E-12
2621.200  6.119E-12
2621.400  7.030E-12
2621.600  3.429E-12
2621.800  2.952E-12
2622.000  3.192E-12
2622.200  3.219E-12
2622.400  2.451E-12
2622.600  4.211E-12
2622.800  2.955E-12
2623.000  3.511E-12
2623.200  3.540E-12
2623.400  3.811E-12
2623.600  3.744E-12
2623.800  2.768E-12
2624.000  3.027E-12
2624.200  3.453E-12
2624.400  1.504E-12
2624.600  2.104E-12
2624.800  4.131E-12
2625.000  3.316E-12
2625.200  4.063E-12
2625.400  3.669E-12
2625.600  3.184E-12
2625.800  3.652E-12
2626.000  3.549E-12
2626.200  2.474E-12
2626.400  4.676E-12
2626.600  9.586E-12
2626.800  5.992E-12
2627.000  2.790E-12
2627.200  2.723E-12
2627.400  2.601E-12
2627.600  3.192E-12
2627.800  3.444E-12
2628.000  2.547E-12
2628.200  3.231E-12
2628.400  3.519E-12
2628.600  3.247E-12
2628.800  2.605E-12
2629.000  2.553E-12
2629.200  4.512E-12
2629.400  4.367E-12
2629.600  2.083E-12
2629.800  2.735E-12
2630.000  2.858E-12
2630.200  3.223E-12
2630.400  3.106E-12
2630.600  2.632E-12
2630.800  2.768E-12
2631.000  2.444E-12
2631.200  2.840E-12
2631.400  2.866E-12
2631.600  1.903E-12
2631.800  4.053E-12
2632.000  5.179E-12
2632.200  6.607E-12
2632.400  6.261E-12
2632.600  2.103E-12
2632.800  2.540E-12
2633.000  2.774E-12
2633.200  2.403E-12
2633.400  2.334E-12
2633.600  2.550E-12
2633.800  2.492E-12
2634.000  3.562E-12
2634.200  3.745E-12
2634.400  3.611E-12
2634.600  3.377E-12
2634.800  3.134E-12
2635.000  3.394E-12
2635.200  3.629E-12
2635.400  4.609E-12
2635.600  4.322E-12
2635.800  3.837E-12
2636.000  3.839E-12
2636.200  4.020E-12
2636.400  3.286E-12
2636.600  3.254E-12
2636.800  2.883E-12
2637.000  4.134E-12
2637.200  5.277E-12
2637.400  4.518E-12
2637.600  4.256E-12
2637.800  3.755E-12
2638.000  3.489E-12
2638.200  5.281E-12
2638.400  6.223E-12
2638.600  5.670E-12
2638.800  7.504E-12
2639.000  7.300E-12
2639.200  7.415E-12
2639.400  7.565E-12
2639.600  6.718E-12
2639.800  6.596E-12
2640.000  5.612E-12
2640.200  7.003E-12
2640.400  4.650E-12
2640.600  5.819E-12
2640.800  5.519E-12
2641.000  4.366E-12
2641.200  3.770E-12
2641.400  4.215E-12
2641.600  3.948E-12
2641.800  4.753E-12
2642.000  3.603E-12
2642.200  5.239E-12
2642.400  4.022E-12
2642.600  4.040E-12
2642.800  6.426E-12
2643.000  5.736E-12
2643.200  6.948E-12
2643.400  7.264E-12
2643.600  6.846E-12
2643.800  5.871E-12
2644.000  7.615E-12
2644.200  5.776E-12
2644.400  6.769E-12
2644.600  6.913E-12
2644.800  5.359E-12
2645.000  3.513E-12
2645.200  3.343E-12
2645.400  5.732E-12
2645.600  5.081E-12
2645.800  4.418E-12
2646.000  4.126E-12
2646.200  3.748E-12
2646.400  4.919E-12
2646.600  4.871E-12
2646.800  4.380E-12
2647.000  4.730E-12
2647.200  3.220E-12
2647.400  3.688E-12
2647.600  5.707E-12
2647.800  5.914E-12
2648.000  5.610E-12
2648.200  4.208E-12
2648.400  4.090E-12
2648.600  3.886E-12
2648.800  4.280E-12
2649.000  3.995E-12
2649.200  2.971E-12
2649.400  2.971E-12
2649.600  3.127E-12
2649.800  4.558E-12
2650.000  4.452E-12
2650.200  4.454E-12
2650.400  4.215E-12
2650.600  4.529E-12
2650.800  3.656E-12
2651.000  6.393E-12
2651.200  4.604E-12
2651.400  3.945E-12
2651.600  4.635E-12
2651.800  5.317E-12
2652.000  5.165E-12
2652.200  3.823E-12
2652.400  5.575E-12
2652.600  4.564E-12
2652.800  5.279E-12
2653.000  5.155E-12
2653.200  4.862E-12
2653.400  3.658E-12
2653.600  5.587E-12
2653.800  6.163E-12
2654.000  5.125E-12
2654.200  5.130E-12
2654.400  5.460E-12
2654.600  3.775E-12
2654.800  6.380E-12
2655.000  6.165E-12
2655.200  4.527E-12
2655.400  7.608E-12
2655.600  6.428E-12
2655.800  6.408E-12
2656.000  7.367E-12
2656.200  8.086E-12
2656.400  6.725E-12
2656.600  4.464E-12
2656.800  5.100E-12
2657.000  5.339E-12
2657.200  3.878E-12
2657.400  6.104E-12
2657.600  7.924E-12
2657.800  3.877E-12
2658.000  6.882E-12
2658.200  5.181E-12
2658.400  3.993E-12
2658.600  6.048E-12
2658.800  6.940E-12
2659.000  5.920E-12
2659.200  4.943E-12
2659.400  4.661E-12
2659.600  5.730E-12
2659.800  7.515E-12
2660.000  7.419E-12
2660.200  5.687E-12
2660.400  6.029E-12
2660.600  5.691E-12
2660.800  6.431E-12
2661.000  5.054E-12
2661.200  5.102E-12
2661.400  3.258E-12
2661.600  5.381E-12
2661.800  6.201E-12
2662.000  6.979E-12
2662.200  3.330E-12
2662.400  4.082E-12
2662.600  4.215E-12
2662.800  5.609E-12
2663.000  3.918E-12
2663.200  4.571E-12
2663.400  5.997E-12
2663.600  6.036E-12
2663.800  8.129E-12
2664.000  5.818E-12
2664.200  4.888E-12
2664.400  3.995E-12
2664.600  3.579E-12
2664.800  4.252E-12
2665.000  3.025E-12
2665.200  6.741E-12
2665.400  7.335E-12
2665.600  4.898E-12
2665.800  6.699E-12
2666.000  7.249E-12
2666.200  7.655E-12
2666.400  6.914E-12
2666.600  7.157E-12
2666.800  6.164E-12
2667.000  3.751E-12
2667.200  5.302E-12
2667.400  3.683E-12
2667.600  3.634E-12
2667.800  2.736E-12
2668.000  6.601E-12
2668.200  6.439E-12
2668.400  6.708E-12
2668.600  8.079E-12
2668.800  5.779E-12
2669.000  4.570E-12
2669.200  5.668E-12
2669.400  7.163E-12
2669.600  6.567E-12
2669.800  6.096E-12
2670.000  5.965E-12
2670.200  5.808E-12
2670.400  3.080E-12
2670.600  3.077E-12
2670.800  3.936E-12
2671.000  4.500E-12
2671.200  5.673E-12
2671.400  5.692E-12
2671.600  6.462E-12
2671.800  5.052E-12
2672.000  7.559E-12
2672.200  7.160E-12
2672.400  6.970E-12
2672.600  5.282E-12
2672.800  3.677E-12
2673.000  3.147E-12
2673.200  3.070E-12
2673.400  2.972E-12
2673.600  4.423E-12
2673.800  4.420E-12
2674.000  5.530E-12
2674.200  4.049E-12
2674.400  5.217E-12
2674.600  5.439E-12
2674.800  6.172E-12
2675.000  6.022E-12
2675.200  6.668E-12
2675.400  8.085E-12
2675.600  6.324E-12
2675.800  7.926E-12
2676.000  6.309E-12
2676.200  5.792E-12
2676.400  6.285E-12
2676.600  6.061E-12
2676.800  7.039E-12
2677.000  2.863E-12
2677.200  6.995E-12
2677.400  8.811E-12
2677.600  6.962E-12
2677.800  6.668E-12
2678.000  4.097E-12
2678.200  3.164E-12
2678.400  6.406E-12
2678.600  6.901E-12
2678.800  6.069E-12
2679.000  5.202E-12
2679.200  5.647E-12
2679.400  5.881E-12
2679.600  3.437E-12
2679.800  3.518E-12
2680.000  2.158E-12
2680.200  3.303E-12
2680.400  5.407E-12
2680.600  5.457E-12
2680.800  4.997E-12
2681.000  6.034E-12
2681.200  3.853E-12
2681.400  4.349E-12
2681.600  5.896E-12
2681.800  5.655E-12
2682.000  6.092E-12
2682.200  6.737E-12
2682.400  4.867E-12
2682.600  3.900E-12
2682.800  5.486E-12
2683.000  5.118E-12
2683.200  5.089E-12
2683.400  6.748E-12
2683.600  5.391E-12
2683.800  5.575E-12
2684.000  4.354E-12
2684.200  5.342E-12
2684.400  5.070E-12
2684.600  5.504E-12
2684.800  4.124E-12
2685.000  3.184E-12
2685.200  6.501E-12
2685.400  6.532E-12
2685.600  4.727E-12
2685.800  4.318E-12
2686.000  4.583E-12
2686.200  5.990E-12
2686.400  6.242E-12
2686.600  5.630E-12
2686.800  6.239E-12
2687.000  5.770E-12
2687.200  6.552E-12
2687.400  5.456E-12
2687.600  4.847E-12
2687.800  6.844E-12
2688.000  5.781E-12
2688.200  6.204E-12
2688.400  6.372E-12
2688.600  6.311E-12
2688.800  4.289E-12
2689.000  5.542E-12
2689.200  5.452E-12
2689.400  4.921E-12
2689.600  6.058E-12
2689.800  5.737E-12
2690.000  5.077E-12
2690.200  2.962E-12
2690.400  3.674E-12
2690.600  5.523E-12
2690.800  2.648E-12
2691.000  3.841E-12
2691.200  5.763E-12
2691.400  4.432E-12
2691.600  6.523E-12
2691.800  4.058E-12
2692.000  3.545E-12
2692.200  5.202E-12
2692.400  4.459E-12
2692.600  6.287E-12
2692.800  5.091E-12
2693.000  6.394E-12
2693.200  6.359E-12
2693.400  6.633E-12
2693.600  4.093E-12
2693.800  5.374E-12
2694.000  5.858E-12
2694.200  7.463E-12
2694.400  7.510E-12
2694.600  6.378E-12
2694.800  5.608E-12
2695.000  6.797E-12
2695.200  5.937E-12
2695.400  5.006E-12
2695.600  4.611E-12
2695.800  5.632E-12
2696.000  4.004E-12
2696.200  2.629E-12
2696.400  3.030E-12
2696.600  3.553E-12
2696.800  4.733E-12
2697.000  3.376E-12
2697.200  3.542E-12
2697.400  2.512E-12
2697.600  7.840E-12
2697.800  5.670E-12
2698.000  6.359E-12
2698.200  5.776E-12
2698.400  4.749E-12
2698.600  5.933E-12
2698.800  8.569E-12
2699.000  4.329E-12
2699.200  6.421E-12
2699.400  4.998E-12
2699.600  5.728E-12
2699.800  5.109E-12
2700.000  4.800E-12
2700.200  4.626E-12
2700.400  5.151E-12
2700.600  5.357E-12
2700.800  8.056E-12
2701.000  8.348E-12
2701.200  9.886E-12
2701.400  8.554E-12
2701.600  6.567E-12
2701.800  6.543E-12
2702.000  3.941E-12
2702.200  7.755E-12
2702.400  8.088E-12
2702.600  5.112E-12
2702.800  4.499E-12
2703.000  7.667E-12
2703.200  4.771E-12
2703.400  6.111E-12
2703.600  5.538E-12
2703.800  9.386E-12
2704.000  7.760E-12
2704.200  6.371E-12
2704.400  6.165E-12
2704.600  5.471E-12
2704.800  5.622E-12
2705.000  4.835E-12
2705.200  6.456E-12
2705.400  7.780E-12
2705.600  6.460E-12
2705.800  9.781E-12
2706.000  8.685E-12
2706.200  8.097E-12
2706.400  6.882E-12
2706.600  8.258E-12
2706.800  6.297E-12
2707.000  3.182E-12
2707.200  5.525E-12
2707.400  4.882E-12
2707.600  3.741E-12
2707.800  4.968E-12
2708.000  5.711E-12
2708.200  7.679E-12
2708.400  6.034E-12
2708.600  6.478E-12
2708.800  6.265E-12
2709.000  6.435E-12
2709.200  6.723E-12
2709.400  5.614E-12
2709.600  3.595E-12
2709.800  5.658E-12
2710.000  7.733E-12
2710.200  8.089E-12
2710.400  8.749E-12
2710.600  7.677E-12
2710.800  5.786E-12
2711.000  5.657E-12
2711.200  5.497E-12
2711.400  3.855E-12
2711.600  7.098E-12
2711.800  8.353E-12
2712.000  5.780E-12
2712.200  5.098E-12
2712.400  4.063E-12
2712.600  2.934E-12
2712.800  7.382E-12
2713.000  8.041E-12
2713.200  6.785E-12
2713.400  7.389E-12
2713.600  8.340E-12
2713.800  8.113E-12
2714.000  8.114E-12
2714.200  8.088E-12
2714.400  4.609E-12
2714.600  6.378E-12
2714.800  5.486E-12
2715.000  4.978E-12
2715.200  3.438E-12
2715.400  3.385E-12
2715.600  5.044E-12
2715.800  4.912E-12
2716.000  5.781E-12
2716.200  5.673E-12
2716.400  3.725E-12
2716.600  4.008E-12
2716.800  6.037E-12
2717.000  5.651E-12
2717.200  4.313E-12
2717.400  5.664E-12
2717.600  4.819E-12
2717.800  4.958E-12
2718.000  5.378E-12
2718.200  4.256E-12
2718.400  3.332E-12
2718.600  3.915E-12
2718.800  3.157E-12
2719.000  2.918E-12
2719.200  2.469E-12
2719.400  1.994E-12
2719.600  1.859E-12
2719.800  1.242E-12
2720.000  7.432E-13
2720.200  1.298E-12
2720.400  1.821E-12
2720.600  2.188E-12
2720.800  2.438E-12
2721.000  2.523E-12
2721.200  2.232E-12
2721.400  2.158E-12
2721.600  1.745E-12
2721.800  1.127E-12
2722.000  1.217E-12
2722.200  1.804E-12
2722.400  3.002E-12
2722.600  3.225E-12
2722.800  3.250E-12
2723.000  3.357E-12
2723.200  3.395E-12
2723.400  3.851E-12
2723.600  3.554E-12
2723.800  3.653E-12
2724.000  3.320E-12
2724.200  2.938E-12
2724.400  2.295E-12
2724.600  1.669E-12
2724.800  2.572E-12
2725.000  3.473E-12
2725.200  3.616E-12
2725.400  4.863E-12
2725.600  4.937E-12
2725.800  3.978E-12
2726.000  3.001E-12
2726.200  5.284E-12
2726.400  6.273E-12
2726.600  5.968E-12
2726.800  4.619E-12
2727.000  3.267E-12
2727.200  4.398E-12
2727.400  4.854E-12
2727.600  5.206E-12
2727.800  5.012E-12
2728.000  6.662E-12
2728.200  5.351E-12
2728.400  3.145E-12
2728.600  4.519E-12
2728.800  4.759E-12
2729.000  4.523E-12
2729.200  5.591E-12
2729.400  6.788E-12
2729.600  6.716E-12
2729.800  5.458E-12
2730.000  7.277E-12
2730.200  8.148E-12
2730.400  6.678E-12
2730.600  6.838E-12
2730.800  8.084E-12
2731.000  7.781E-12
2731.200  5.998E-12
2731.400  5.932E-12
2731.600  5.636E-12
2731.800  4.323E-12
2732.000  5.056E-12
2732.200  6.503E-12
2732.400  6.612E-12
2732.600  7.637E-12
2732.800  5.831E-12
2733.000  3.897E-12
2733.200  5.398E-12
2733.400  1.270E-11
2733.600  6.204E-12
2733.800  4.082E-12
2734.000  4.478E-12
2734.200  3.687E-12
2734.400  2.328E-12
2734.600  2.016E-12
2734.800  2.699E-12
2735.000  3.829E-12
2735.200  3.941E-12
2735.400  4.739E-12
2735.600  4.985E-12
2735.800  5.005E-12
2736.000  4.185E-12
2736.200  4.214E-12
2736.400  2.171E-12
2736.600  3.134E-12
2736.800  4.691E-12
2737.000  4.756E-12
2737.200  4.573E-12
2737.400  3.701E-12
2737.600  2.969E-12
2737.800  2.815E-12
2738.000  2.429E-12
2738.200  1.770E-12
2738.400  1.821E-12
2738.600  2.668E-12
2738.800  3.102E-12
2739.000  4.728E-12
2739.200  4.620E-12
2739.400  4.821E-12
2739.600  5.272E-12
2739.800  5.194E-12
2740.000  4.648E-12
2740.200  3.863E-12
2740.400  3.524E-12
2740.600  3.587E-12
2740.800  3.790E-12
2741.000  4.276E-12
2741.200  4.206E-12
2741.400  4.934E-12
2741.600  5.136E-12
2741.800  4.812E-12
2742.000  4.055E-12
2742.200  4.102E-12
2742.400  4.058E-12
2742.600  3.438E-12
2742.800  3.411E-12
2743.000  2.518E-12
2743.200  1.828E-12
2743.400  1.244E-12
2743.600  2.079E-12
2743.800  2.837E-12
2744.000  2.847E-12
2744.200  2.780E-12
2744.400  2.974E-12
2744.600  3.022E-12
2744.800  2.891E-12
2745.000  1.855E-12
2745.200  3.266E-12
2745.400  2.890E-12
2745.600  3.954E-12
2745.800  3.961E-12
2746.000  3.897E-12
2746.200  5.468E-12
2746.400  5.864E-12
2746.600  5.222E-12
2746.800  4.592E-12
2747.000  4.358E-12
2747.200  3.944E-12
2747.400  3.043E-12
2747.600  3.023E-12
2747.800  3.053E-12
2748.000  3.026E-12
2748.200  3.995E-12
2748.400  4.711E-12
2748.600  4.180E-12
2748.800  5.682E-12
2749.000  5.513E-12
2749.200  4.143E-12
2749.400  4.792E-12
2749.600  5.017E-12
2749.800  3.803E-12
2750.000  2.758E-12
2750.200  3.093E-12
2750.400  3.362E-12
2750.600  2.760E-12
2750.800  2.496E-12
2751.000  1.705E-12
2751.200  1.617E-12
2751.400  2.187E-12
2751.600  2.994E-12
2751.800  2.792E-12
2752.000  4.185E-12
2752.200  4.166E-12
2752.400  5.779E-12
2752.600  5.534E-12
2752.800  5.427E-12
2753.000  5.795E-12
2753.200  6.183E-12
2753.400  6.981E-12
2753.600  6.404E-12
2753.800  6.013E-12
2754.000  6.411E-12
2754.200  4.960E-12
2754.400  5.653E-12
2754.600  5.685E-12
2754.800  3.982E-12
2755.000  4.925E-12
2755.200  5.519E-12
2755.400  5.627E-12
2755.600  5.377E-12
2755.800  5.692E-12
2756.000  4.461E-12
2756.200  3.729E-12
2756.400  3.786E-12
2756.600  4.430E-12
2756.800  4.549E-12
2757.000  2.708E-12
2757.200  2.255E-12
2757.400  2.356E-12
2757.600  3.417E-12
2757.800  4.256E-12
2758.000  3.997E-12
2758.200  3.988E-12
2758.400  4.010E-12
2758.600  4.563E-12
2758.800  4.930E-12
2759.000  6.917E-12
2759.200  7.841E-12
2759.400  8.609E-12
2759.600  7.838E-12
2759.800  7.288E-12
2760.000  7.136E-12
2760.200  8.899E-12
2760.400  8.968E-12
2760.600  5.782E-12
2760.800  3.397E-12
2761.000  7.098E-12
2761.200  8.141E-12
2761.400  8.490E-12
2761.600  6.387E-12
2761.800  6.415E-12
2762.000  7.362E-12
2762.200  7.698E-12
2762.400  5.434E-12
2762.600  4.545E-12
2762.800  3.229E-12
2763.000  2.864E-12
2763.200  5.062E-12
2763.400  5.793E-12
2763.600  2.964E-12
2763.800  5.039E-12
2764.000  6.305E-12
2764.200  6.941E-12
2764.400  6.824E-12
2764.600  7.773E-12
2764.800  6.658E-12
2765.000  5.976E-12
2765.200  3.919E-12
2765.400  7.829E-12
2765.600  9.964E-12
2765.800  8.113E-12
2766.000  1.002E-11
2766.200  8.747E-12
2766.400  8.980E-12
2766.600  9.844E-12
2766.800  9.348E-12
2767.000  9.074E-12
2767.200  7.765E-12
2767.400  6.689E-12
2767.600  5.181E-12
2767.800  6.890E-12
2768.000  6.965E-12
2768.200  6.941E-12
2768.400  5.085E-12
2768.600  4.727E-12
2768.800  6.626E-12
2769.000  6.775E-12
2769.200  7.023E-12
2769.400  5.578E-12
2769.600  6.483E-12
2769.800  5.814E-12
2770.000  7.212E-12
2770.200  6.312E-12
2770.400  6.882E-12
2770.600  6.257E-12
2770.800  5.698E-12
2771.000  7.467E-12
2771.200  9.645E-12
2771.400  7.923E-12
2771.600  4.191E-12
2771.800  8.444E-12
2772.000  8.731E-12
2772.200  8.520E-12
2772.400  7.821E-12
2772.600  6.083E-12
2772.800  5.171E-12
2773.000  3.103E-12
2773.200  2.619E-12
2773.400  4.225E-12
2773.600  6.194E-12
2773.800  8.388E-12
2774.000  8.390E-12
2774.200  7.724E-12
2774.400  7.587E-12
2774.600  8.790E-12
2774.800  8.597E-12
2775.000  7.719E-12
2775.200  7.774E-12
2775.400  8.131E-12
2775.600  8.440E-12
2775.800  5.691E-12
2776.000  7.752E-12
2776.200  7.419E-12
2776.400  7.445E-12
2776.600  7.952E-12
2776.800  7.044E-12
2777.000  8.411E-12
2777.200  5.971E-12
2777.400  5.971E-12
2777.600  3.527E-12
2777.800  3.932E-12
2778.000  7.656E-12
2778.200  7.626E-12
2778.400  7.735E-12
2778.600  6.134E-12
2778.800  5.246E-12
2779.000  4.614E-12
2779.200  1.750E-12
2779.400  4.144E-12
2779.600  6.518E-12
2779.800  3.982E-12
2780.000  5.899E-12
2780.200  4.970E-12
2780.400  5.356E-12
2780.600  3.997E-12
2780.800  1.715E-12
2781.000  4.422E-12
2781.200  4.635E-12
2781.400  6.049E-12
2781.600  3.954E-12
2781.800  4.620E-12
2782.000  4.903E-12
2782.200  4.050E-12
2782.400  2.686E-12
2782.600  5.196E-12
2782.800  4.970E-12
2783.000  5.524E-12
2783.200  5.559E-12
2783.400  5.721E-12
2783.600  5.711E-12
2783.800  4.277E-12
2784.000  3.688E-12
2784.200  4.054E-12
2784.400  4.700E-12
2784.600  5.335E-12
2784.800  6.128E-12
2785.000  6.093E-12
2785.200  5.797E-12
2785.400  6.327E-12
2785.600  5.827E-12
2785.800  6.074E-12
2786.000  6.297E-12
2786.200  6.132E-12
2786.400  6.006E-12
2786.600  5.190E-12
2786.800  5.914E-12
2787.000  5.448E-12
2787.200  4.940E-12
2787.400  4.871E-12
2787.600  5.383E-12
2787.800  5.178E-12
2788.000  5.374E-12
2788.200  4.322E-12
2788.400  4.835E-12
2788.600  4.694E-12
2788.800  3.827E-12
2789.000  2.204E-12
2789.200  2.796E-12
2789.400  4.170E-12
2789.600  4.277E-12
2789.800  4.709E-12
2790.000  4.660E-12
2790.200  4.452E-12
2790.400  4.005E-12
2790.600  4.066E-12
2790.800  3.385E-12
2791.000  4.051E-12
2791.200  4.158E-12
2791.400  4.344E-12
2791.600  3.994E-12
2791.800  4.229E-12
2792.000  3.503E-12
2792.200  4.082E-12
2792.400  3.542E-12
2792.600  3.402E-12
2792.800  3.184E-12
2793.000  3.121E-12
2793.200  3.062E-12
2793.400  2.862E-12
2793.600  2.991E-12
2793.800  2.668E-12
2794.000  2.725E-12
2794.200  2.655E-12
2794.400  2.353E-12
2794.600  2.333E-12
2794.800  2.212E-12
2795.000  1.999E-12
2795.200  1.786E-12
2795.400  1.859E-12
2795.600  1.621E-12
2795.800  1.328E-12
2796.000  4.257E-12
2796.200  4.403E-11
2796.400  7.256E-11
2796.600  7.532E-11
2796.800  5.517E-11
2797.000  5.256E-12
2797.200  1.801E-12
2797.400  1.716E-12
2797.600  1.963E-12
2797.800  1.873E-12
2798.000  2.710E-12
2798.200  2.197E-12
2798.400  2.330E-12
2798.600  2.282E-12
2798.800  2.950E-12
2799.000  2.892E-12
2799.200  2.408E-12
2799.400  2.105E-12
2799.600  2.329E-12
2799.800  2.710E-12
2800.000  2.733E-12
2800.200  2.943E-12
2800.400  2.991E-12
2800.600  2.957E-12
2800.800  2.941E-12
2801.000  2.873E-12
2801.200  2.742E-12
2801.400  2.718E-12
2801.600  2.630E-12
2801.800  2.487E-12
2802.000  1.929E-12
2802.200  2.134E-12
2802.400  2.363E-12
2802.600  2.156E-12
2802.800  2.076E-12
2803.000  1.842E-12
2803.200  2.796E-12
2803.400  3.238E-11
2803.600  5.877E-11
2803.800  5.978E-11
2804.000  3.404E-11
2804.200  2.598E-12
2804.400  1.920E-12
2804.600  1.952E-12
2804.800  2.260E-12
2805.000  2.581E-12
2805.200  2.518E-12
2805.400  2.454E-12
2805.600  2.713E-12
2805.800  2.981E-12
2806.000  2.964E-12
2806.200  3.261E-12
2806.400  3.081E-12
2806.600  3.287E-12
2806.800  3.303E-12
2807.000  3.681E-12
2807.200  4.113E-12
2807.400  3.954E-12
2807.600  3.605E-12
2807.800  3.750E-12
2808.000  3.129E-12
2808.200  3.782E-12
2808.400  4.136E-12
2808.600  4.771E-12
2808.800  4.788E-12
2809.000  4.482E-12
2809.200  4.800E-12
2809.400  4.786E-12
2809.600  4.970E-12
2809.800  5.519E-12
2810.000  4.785E-12
2810.200  5.622E-12
2810.400  5.409E-12
2810.600  6.353E-12
2810.800  5.546E-12
2811.000  6.019E-12
2811.200  5.866E-12
2811.400  5.335E-12
2811.600  5.975E-12
2811.800  6.038E-12
2812.000  5.393E-12
2812.200  4.906E-12
2812.400  4.829E-12
2812.600  5.023E-12
2812.800  4.646E-12
2813.000  5.657E-12
2813.200  5.416E-12
2813.400  6.161E-12
2813.600  6.277E-12
2813.800  5.460E-12
2814.000  4.001E-12
2814.200  3.061E-12
2814.400  3.254E-12
2814.600  5.478E-12
2814.800  6.260E-12
2815.000  7.323E-12
2815.200  7.413E-12
2815.400  7.317E-12
2815.600  7.730E-12
2815.800  8.670E-12
2816.000  8.605E-12
2816.200  8.586E-12
2816.400  6.877E-12
2816.600  7.986E-12
2816.800  8.023E-12
2817.000  7.560E-12
2817.200  8.780E-12
2817.400  7.798E-12
2817.600  5.976E-12
2817.800  8.438E-12
2818.000  8.673E-12
2818.200  7.382E-12
2818.400  5.355E-12
2818.600  6.319E-12
2818.800  6.443E-12
2819.000  7.452E-12
2819.200  8.260E-12
2819.400  8.496E-12
2819.600  5.696E-12
2819.800  6.181E-12
2820.000  8.388E-12
2820.200  6.107E-12
2820.400  4.723E-12
2820.600  8.389E-12
2820.800  9.320E-12
2821.000  9.591E-12
2821.200  8.318E-12
2821.400  7.863E-12
2821.600  9.425E-12
2821.800  7.077E-12
2822.000  7.778E-12
2822.200  7.683E-12
2822.400  5.180E-12
2822.600  5.913E-12
2822.800  9.158E-12
2823.000  9.334E-12
2823.200  9.230E-12
2823.400  7.721E-12
2823.600  5.596E-12
2823.800  6.320E-12
2824.000  7.166E-12
2824.200  4.931E-12
2824.400  6.293E-12
2824.600  9.032E-12
2824.800  8.970E-12
2825.000  8.426E-12
2825.200  8.294E-12
2825.400  7.848E-12
2825.600  8.696E-12
2825.800  9.247E-12
2826.000  9.016E-12
2826.200  6.403E-12
2826.400  5.249E-12
2826.600  2.385E-12
2826.800  6.167E-12
2827.000  6.494E-12
2827.200  7.440E-12
2827.400  7.392E-12
2827.600  7.290E-12
2827.800  8.321E-12
2828.000  8.230E-12
2828.200  7.543E-12
2828.400  7.653E-12
2828.600  6.025E-12
2828.800  6.604E-12
2829.000  7.488E-12
2829.200  7.648E-12
2829.400  9.805E-12
2829.600  9.604E-12
2829.800  6.921E-12
2830.000  9.828E-12
2830.200  9.112E-12
2830.400  6.591E-12
2830.600  1.006E-11
2830.800  9.288E-12
2831.000  1.065E-11
2831.200  1.015E-11
2831.400  8.139E-12
2831.600  1.091E-11
2831.800  9.748E-12
2832.000  9.432E-12
2832.200  1.174E-11
2832.400  1.006E-11
2832.600  9.894E-12
2832.800  8.314E-12
2833.000  7.950E-12
2833.200  7.590E-12
2833.400  3.553E-12
2833.600  6.371E-12
2833.800  6.793E-12
2834.000  8.356E-12
